ENTRY            30852   20230313                             32103085200000001 
SUBENT        30852001   20230313                             32103085200100001 
BIB                 12         19                                 3085200100002 
TITLE      Measurements of Neutron Total Cross-Section of Natural 3085200100003 
           Silver in the Energy Region from 0.01 to 10 eV         3085200100004 
AUTHOR     (S.G.Shin, M.H.Cho, G.N.Kim, M.W.Lee)                  3085200100005 
INSTITUTE  (3KORPUE,3KORKNU,3KORDRM)                              3085200100006 
REFERENCE  (J,KPS,72,17,2018)                                     3085200100007 
FACILITY   (LINAC,3KORPUE) Pohang Neutron Facility (PNF)          3085200100008 
INC-SOURCE (PHOTO) Ta(g,n) photonuclear reaction                  3085200100009 
SAMPLE     Ag metallic plate                                      3085200100010 
            - size: 10 cm x 10 cm                                 3085200100011 
            - thickness: 0.5 mm (2.87 atoms/mbarn)                3085200100012 
METHOD     (TOF,TRN) 11 m flight path. The Co, In, Dy and Cd notch3085200100013 
            filters were used for the background measurement and  3085200100014 
            the energy calibration.                               3085200100015 
DETECTOR   (SCIN) 6Li-ZnS(Ag) scintillator (BC702) with a diameter3085200100016 
            12.5 cm and a thickness of 1.6 cm                     3085200100017 
ERR-ANALYS (ERR-S) Statistical error                              3085200100018 
STATUS     (APRVD) Approved by G.N.Kim (2023-03-14)               3085200100019 
HISTORY    (20230309R) Total CS data received from S.G.Shin       3085200100020 
           (20230313C) S.C.Yang                                   3085200100021 
ENDBIB              19          0                                 3085200100022 
NOCOMMON             0          0                                 3085200100023 
ENDSUBENT           22          0                                 3085200199999 
SUBENT        30852002   20230313                             32103085200200001 
BIB                  2          2                                 3085200200002 
REACTION   (47-AG-0(N,TOT),,SIG)                                  3085200200003 
STATUS     (TABLE) Fig.5 of J.Korean Phys.Soc.72,17,2018          3085200200004 
ENDBIB               2          0                                 3085200200005 
NOCOMMON             0          0                                 3085200200006 
DATA                 3        514                                 3085200200007 
EN         DATA       ERR-S                                       3085200200008 
EV         B          B                                           3085200200009 
0.01057    92.2055    7.93573                                     3085200200010 
0.01062    102.12     8.08536                                     3085200200011 
0.01068    108.174    8.29838                                     3085200200012 
0.01073    94.355     7.77928                                     3085200200013 
0.01078    104.656    8.04563                                     3085200200014 
0.01084    98.0794    7.76592                                     3085200200015 
0.01089    105.108    7.943                                       3085200200016 
0.01095    95.8978    7.64862                                     3085200200017 
0.011      94.8898    7.49843                                     3085200200018 
0.01106    105.268    7.77698                                     3085200200019 
0.01112    85.4569    7.16011                                     3085200200020 
0.01117    93.5929    7.35206                                     3085200200021 
0.01123    98.7819    7.33746                                     3085200200022 
0.01129    94.5103    7.19778                                     3085200200023 
0.01135    103.482    7.39958                                     3085200200024 
0.01141    95.6318    7.1568                                      3085200200025 
0.01147    87.2561    6.84359                                     3085200200026 
0.01153    96.7798    7.08382                                     3085200200027 
0.01159    89.204     6.84144                                     3085200200028 
0.01165    91.5343    6.84657                                     3085200200029 
0.01171    108.731    7.18343                                     3085200200030 
0.01177    90.2769    6.67743                                     3085200200031 
0.01183    91.1991    6.64534                                     3085200200032 
0.01189    96.0125    6.71024                                     3085200200033 
0.01196    89.3751    6.48455                                     3085200200034 
0.01202    103.346    6.79202                                     3085200200035 
0.01209    92.3327    6.47625                                     3085200200036 
0.01215    94.5926    6.47268                                     3085200200037 
0.01222    97.4797    6.51731                                     3085200200038 
0.01228    99.7131    6.51284                                     3085200200039 
0.01235    86.6702    6.15737                                     3085200200040 
0.01241    91.2625    6.19831                                     3085200200041 
0.01248    92.0058    6.16618                                     3085200200042 
0.01255    88.8621    6.01637                                     3085200200043 
0.01262    90.146     6.00698                                     3085200200044 
0.01269    88.0536    5.95307                                     3085200200045 
0.01276    94.524     6.02352                                     3085200200046 
0.01283    90.7965    5.9323                                      3085200200047 
0.0129     98.5183    6.06986                                     3085200200048 
0.01297    98.4952    6.00012                                     3085200200049 
0.01304    91.6566    5.79285                                     3085200200050 
0.01311    88.5654    5.7282                                      3085200200051 
0.01319    94.5286    5.78138                                     3085200200052 
0.01326    92.0421    5.71304                                     3085200200053 
0.01333    90.3807    5.63167                                     3085200200054 
0.01341    91.9605    5.58014                                     3085200200055 
0.01348    89.042     5.5291                                      3085200200056 
0.01356    92.5053    5.5707                                      3085200200057 
0.01364    91.8334    5.49194                                     3085200200058 
0.01371    96.4029    5.54146                                     3085200200059 
0.01379    92.6962    5.40554                                     3085200200060 
0.01387    88.3903    5.28975                                     3085200200061 
0.01395    91.5025    5.31456                                     3085200200062 
0.01403    87.6008    5.18817                                     3085200200063 
0.01411    85.2299    5.06399                                     3085200200064 
0.01419    87.171     5.05201                                     3085200200065 
0.01428    86.0184    5.00857                                     3085200200066 
0.01436    84.8163    4.96465                                     3085200200067 
0.01444    85.1409    4.92924                                     3085200200068 
0.01453    86.2504    4.90479                                     3085200200069 
0.01461    87.807     4.87744                                     3085200200070 
0.0147     92.428     4.91984                                     3085200200071 
0.01479    91.086     4.86925                                     3085200200072 
0.01487    89.9971    4.80895                                     3085200200073 
0.01496    87.5874    4.75788                                     3085200200074 
0.01505    85.0831    4.65264                                     3085200200075 
0.01514    82.6231    4.58899                                     3085200200076 
0.01523    78.0772    4.4554                                      3085200200077 
0.01532    90.5885    4.63636                                     3085200200078 
0.01542    89.9971    4.59692                                     3085200200079 
0.01551    79.3919    4.38034                                     3085200200080 
0.0156     84.8919    4.45893                                     3085200200081 
0.0157     78.365     4.31073                                     3085200200082 
0.01579    86.0318    4.39772                                     3085200200083 
0.01589    80.5271    4.29805                                     3085200200084 
0.01599    84.2656    4.32223                                     3085200200085 
0.01609    80.7511    4.22613                                     3085200200086 
0.01619    81.1027    4.19962                                     3085200200087 
0.01629    80.6325    4.15443                                     3085200200088 
0.01639    80.5578    4.1272                                      3085200200089 
0.01649    84.7274    4.15022                                     3085200200090 
0.01659    83.0651    4.1172                                      3085200200091 
0.0167     81.7938    4.04933                                     3085200200092 
0.0168     83.8044    4.04618                                     3085200200093 
0.01691    80.4349    3.96335                                     3085200200094 
0.01701    89.087     4.06749                                     3085200200095 
0.01712    76.8283    3.85303                                     3085200200096 
0.01723    82.27      3.89162                                     3085200200097 
0.01734    80.8609    3.85394                                     3085200200098 
0.01745    79.4882    3.80814                                     3085200200099 
0.01757    81.9039    3.80379                                     3085200200100 
0.01768    85.6306    3.82241                                     3085200200101 
0.01779    77.881     3.67298                                     3085200200102 
0.01791    81.5603    3.70757                                     3085200200103 
0.01803    85.3145    3.72548                                     3085200200104 
0.01814    84.6119    3.69576                                     3085200200105 
0.01826    80.2375    3.61017                                     3085200200106 
0.01838    79.8735    3.56697                                     3085200200107 
0.0185     78.889     3.51757                                     3085200200108 
0.01863    74.0118    3.43421                                     3085200200109 
0.01875    79.9787    3.49353                                     3085200200110 
0.01888    71.4274    3.3404                                      3085200200111 
0.019      75.7007    3.3643                                      3085200200112 
0.01913    76.9846    3.35933                                     3085200200113 
0.01926    79.5013    3.3618                                      3085200200114 
0.01939    78.2603    3.32804                                     3085200200115 
0.01952    75.3112    3.25674                                     3085200200116 
0.01965    73.8308    3.2214                                      3085200200117 
0.01979    74.7235    3.20375                                     3085200200118 
0.01992    76.2944    3.20522                                     3085200200119 
0.02006    77.5762    3.18221                                     3085200200120 
0.0202     74.1282    3.11639                                     3085200200121 
0.02034    75.5838    3.09914                                     3085200200122 
0.02048    77.5805    3.09518                                     3085200200123 
0.02062    75.108     3.056                                       3085200200124 
0.02077    77.5109    3.05104                                     3085200200125 
0.02091    76.7197    3.0224                                      3085200200126 
0.02106    74.9524    2.96823                                     3085200200127 
0.02121    73.9472    2.93383                                     3085200200128 
0.02136    73.1984    2.90174                                     3085200200129 
0.02151    68.0563    2.83381                                     3085200200130 
0.02167    69.5974    2.8251                                      3085200200131 
0.02182    75.216     2.86238                                     3085200200132 
0.02198    70.3982    2.78469                                     3085200200133 
0.02214    69.4102    2.75555                                     3085200200134 
0.0223     73.4263    2.77889                                     3085200200135 
0.02246    69.3337    2.70818                                     3085200200136 
0.02262    73.9386    2.73559                                     3085200200137 
0.02279    67.2482    2.64975                                     3085200200138 
0.02296    71.9068    2.66829                                     3085200200139 
0.02313    72.5841    2.65631                                     3085200200140 
0.0233     73.237     2.6355                                      3085200200141 
0.02347    72.962     2.61624                                     3085200200142 
0.02365    70.4323    2.57172                                     3085200200143 
0.02382    68.7178    2.53363                                     3085200200144 
0.024      68.6584    2.52047                                     3085200200145 
0.02418    68.1665    2.49997                                     3085200200146 
0.02437    69.5506    2.48439                                     3085200200147 
0.02455    72.1896    2.48614                                     3085200200148 
0.02474    69.7293    2.44311                                     3085200200149 
0.02493    71.2478    2.44095                                     3085200200150 
0.02512    69.3124    2.40192                                     3085200200151 
0.02532    69.032     2.383                                       3085200200152 
0.02551    65.5619    2.33836                                     3085200200153 
0.02571    63.1144    2.29693                                     3085200200154 
0.02591    68.2004    2.31799                                     3085200200155 
0.02612    68.8494    2.30109                                     3085200200156 
0.02632    66.2565    2.26717                                     3085200200157 
0.02653    66.1638    2.24129                                     3085200200158 
0.02674    67.4342    2.22833                                     3085200200159 
0.02695    63.5114    2.18248                                     3085200200160 
0.02717    64.8434    2.16986                                     3085200200161 
0.02739    65.7554    2.16713                                     3085200200162 
0.02761    67.7811    2.16707                                     3085200200163 
0.02783    65.7175    2.13323                                     3085200200164 
0.02806    69.0914    2.13275                                     3085200200165 
0.02829    64.7721    2.09388                                     3085200200166 
0.02852    66.2776    2.08188                                     3085200200167 
0.02876    66.2312    2.06896                                     3085200200168 
0.02899    63.3567    2.03524                                     3085200200169 
0.02923    65.3937    2.02616                                     3085200200170 
0.02948    64.7637    2.00571                                     3085200200171 
0.02973    62.0136    1.97329                                     3085200200172 
0.02998    63.7414    1.97055                                     3085200200173 
0.03023    61.5352    1.93733                                     3085200200174 
0.03049    61.8471    1.93074                                     3085200200175 
0.03074    64.2019    1.92708                                     3085200200176 
0.03101    65.6039    1.92223                                     3085200200177 
0.03127    62.3343    1.88761                                     3085200200178 
0.03154    64.248     1.88124                                     3085200200179 
0.03182    62.622     1.8558                                      3085200200180 
0.03209    59.901     1.82481                                     3085200200181 
0.03237    62.4635    1.82995                                     3085200200182 
0.03266    61.4978    1.80826                                     3085200200183 
0.03295    63.2104    1.80046                                     3085200200184 
0.03324    60.6715    1.7708                                      3085200200185 
0.03353    59.7727    1.74969                                     3085200200186 
0.03383    57.6655    1.7268                                      3085200200187 
0.03414    59.7397    1.72057                                     3085200200188 
0.03445    59.4213    1.71073                                     3085200200189 
0.03476    60.2032    1.70215                                     3085200200190 
0.03507    58.1015    1.67545                                     3085200200191 
0.03539    58.7979    1.66643                                     3085200200192 
0.03572    56.9221    1.64517                                     3085200200193 
0.03605    59.2272    1.65196                                     3085200200194 
0.03638    58.8433    1.63364                                     3085200200195 
0.03672    53.6228    1.59309                                     3085200200196 
0.03707    56.6637    1.59476                                     3085200200197 
0.03741    56.1516    1.58014                                     3085200200198 
0.03777    57.9163    1.5717                                      3085200200199 
0.03813    56.6514    1.55371                                     3085200200200 
0.03849    58.2951    1.55282                                     3085200200201 
0.03886    58.1056    1.53962                                     3085200200202 
0.03923    53.0502    1.50527                                     3085200200203 
0.03961    56.0902    1.50618                                     3085200200204 
0.04       54.3999    1.49075                                     3085200200205 
0.04039    55.8202    1.48457                                     3085200200206 
0.04078    57.1109    1.47776                                     3085200200207 
0.04119    54.7177    1.4595                                      3085200200208 
0.04159    54.3225    1.44562                                     3085200200209 
0.04201    53.9114    1.43578                                     3085200200210 
0.04243    54.1963    1.42475                                     3085200200211 
0.04285    54.5262    1.42202                                     3085200200212 
0.04329    55.5299    1.41795                                     3085200200213 
0.04373    55.5013    1.40558                                     3085200200214 
0.04417    54.1312    1.39192                                     3085200200215 
0.04463    54.8849    1.38678                                     3085200200216 
0.04509    54.351     1.37244                                     3085200200217 
0.04556    52.6812    1.35777                                     3085200200218 
0.04603    53.375     1.35235                                     3085200200219 
0.04651    51.314     1.33227                                     3085200200220 
0.047      50.6606    1.31768                                     3085200200221 
