ENTRY            31650   20080823                             31303165000000001 
SUBENT        31650001   20080823                             31303165000100001 
BIB                 13         32                                 3165000100002 
TITLE      Nuclear structure of 187W studied with (n,gamma)       3165000100003 
           and (d, p) reactions                                   3165000100004 
AUTHOR     (V.Bondarenko,I.Tomandl,H.-F.Wirth,J.Honzatko,         3165000100005 
           A.M.Sukhovoj,L.A.Malov,L.I.Simonova,R.Hertenberger,    3165000100006 
           T.von Egidy,J.Berzins)                                 3165000100007 
INSTITUTE  (4LATULR,3CZRUJV,2GERMUN,2GERLMU,3CZRUJF,4ZZZDUB)      3165000100008 
REFERENCE  (J,NP/A,811,28,2008)                                   3165000100009 
           (J,NP/A,619,1,1997) preliminary results for levels     3165000100010 
                               in 187W till 2.2 MeV               3165000100011 
FACILITY   (REAC,3CZRUJF) the LWR-15 reactor at Rez near Prague.  3165000100012 
SAMPLE     The enriched sample (99.8%) of about 1.1 g             3165000100013 
METHOD     (GSPEC,COINC)                                          3165000100014 
ANALYSIS   Two single spectra were measured with both detectors   3165000100015 
           simultaneously, one in the energy range 0 - 2.35 MeV,  3165000100016 
           and another between 0 and 5.9 MeV. The relative        3165000100017 
           intensity of the 187W spectra was converted into       3165000100018 
           absolute units using activation lines from the         3165000100019 
           following  beta-decay to 187Re                         3165000100020 
INC-SOURCE (REAC) thermal neutrons from the neutron guide with    3165000100021 
           the flux on the target position of about               3165000100022 
           3 x 10**6 n/cm2/s at a reactor power of 8 MW.          3165000100023 
DETECTOR   (HPGE) two HPGe detectors (25% detector with a         3165000100024 
           resolution of 2 keV (FWHM) at 60Co lines and about 5   3165000100025 
           keV at 5-6 MeV and a 20% detector with approximately   3165000100026 
           the same resolution.) For both detectors the           3165000100027 
           relative efficiency and energy calibration was made    3165000100028 
           relative to the reaction 35Cl(n,gamma) and with the    3165000100029 
           radioactive sources 152Eu and 133Ba.                   3165000100030 
STATUS     (TABLE) Data were received from Dr. V.Bondarenko       3165000100031 
           (APRVD) Entry approved by Dr. V.Bondarenko             3165000100032 
ADD-RES    Results from (d,p) reaction are included in Entry D05063165000100033 
HISTORY    (20080823C)                                            3165000100034 
ENDBIB              32          0                                 3165000100035 
COMMON               1          3                                 3165000100036 
EN                                                                3165000100037 
EV                                                                3165000100038 
  0.0253                                                          3165000100039 
ENDCOMMON            3          0                                 3165000100040 
ENDSUBENT           39          0                                 3165000199999 
SUBENT        31650002   20080823                             31303165000200001 
BIB                  3          9                                 3165000200002 
REACTION   (74-W-186(N,G)74-W-187,,SPC,,SPA)  tbl.1               3165000200003 
           Gamma energies are not corected for recoil             3165000200004 
ERR-ANALYS (E-ERR) Uncertainty include statistical and            3165000200005 
           systematical errors.                                   3165000200006 
           (ERR-S) Statistical error is given.                    3165000200007 
FLAG       (1.) Only part of the total intensity is assigned      3165000200008 
                to this decay mode.                               3165000200009 
           (3.) Observed in coincidences.                         3165000200010 
           (4.) Questionable line.                                3165000200011 
ENDBIB               9          0                                 3165000200012 
NOCOMMON             0          0                                 3165000200013 
DATA                 6        752                                 3165000200014 
E          E-ERR      DATA       ERR-S      LVL-INI    FLAG       3165000200015 
KEV        KEV        PC/INC     PC/INC     KEV        NO-DIM     3165000200016 
      77.25       0.04      0.922      0.024       77.0           3165000200017 
      98.47       0.16      0.035      0.004      303.0           3165000200018 
     101.83       0.02      0.287      0.004      303.0           3165000200019 
     116.29       0.47      0.019      0.004                      3165000200020 
     117.41       0.18      0.055      0.004                      3165000200021 
     118.73       0.09      0.067      0.003                      3165000200022 
     120.54       0.18      0.025      0.003                      3165000200023 
     124.23       0.03      0.418      0.006      201.0           3165000200024 
     127.57       0.02      1.103      0.008      205.0           3165000200025 
     128.92       0.12      0.157      0.007      432.0           3165000200026 
     140.70       0.28      0.038      0.005      882.0           3165000200027 
     143.12       0.09      0.070      0.006      884.0           3165000200028 
     145.86       0.01      9.048      0.027      146.0           3165000200029 
     148.96       0.04      0.316      0.008      350.0           3165000200030 
     157.53       0.02      0.266      0.002      303.0           3165000200031 
     162.74       0.26      0.017      0.002      364.0           3165000200032 
     171.78       0.08      0.085      0.003      522.0           3165000200033 
     193.69       0.17      0.047      0.003                      3165000200034 
     195.31       0.23      0.036      0.004                      3165000200035 
     201.56       0.01      3.021      0.008      201.0           3165000200036 
     204.92       0.01      1.478      0.008      205.0           3165000200037 
     215.83       0.21      0.026      0.003     1082.0           3165000200038 
     218.86       0.13      0.053      0.004      741.0           3165000200039 
     226.08       0.01      0.797      0.004      303.0           3165000200040 
     227.45       0.09      0.114      0.004      432.0           3165000200041 
     229.84       0.80      0.025      0.008     1502.0           3165000200042 
     230.92       0.51      0.033      0.008      432.0           3165000200043 
     253.62       0.03      0.267      0.004      331.0           3165000200044 
     259.36       0.56      0.018      0.004                      3165000200045 
     260.77       0.27      0.028      0.004                      3165000200046 
     266.08       0.40      0.015      0.005     1082.0           3165000200047 
     268.66       0.17      0.034      0.003     1135.0           3165000200048 
     273.14       0.01      2.617      0.007      350.0           3165000200049 
     276.25       0.10      0.126      0.006      640.0           3165000200050 
     286.88       0.15      0.046      0.003      364.0           3165000200051 
     290.06       0.01      0.588      0.004      640.0           3165000200052 
     293.07       0.39      0.020      0.006                      3165000200053 
     294.95       0.13      0.054      0.005     1135.0           3165000200054 
     297.48       0.48      0.015      0.007                      3165000200055 
     303.37       0.02      0.553      0.004      303.0           3165000200056 
     310.48       0.27      0.026      0.004                      3165000200057 
     319.27       0.40      0.017      0.003                      3165000200058 
     330.99       0.07      0.159      0.004      741.0           3165000200059 
     332.51       0.38      0.028      0.004                      3165000200060 
     348.34       0.62      0.013      0.007                      3165000200061 
     350.40       0.11      0.060      0.004      350.0           3165000200062 
     355.02       0.03      0.344      0.004      432.0           3165000200063 
     363.05       0.28      0.027      0.003     1272.0           3165000200064 
     364.83       0.45      0.016      0.003     1217.0           3165000200065 
     368.06       0.31      0.021      0.003     1347.0           3165000200066 
     372.69       0.17      0.042      0.004                      3165000200067 
     376.86       0.02      0.431      0.004      741.0           3165000200068 
     380.37       0.19      0.055      0.006     1272.0           3165000200069 
     383.82       0.29      0.041      0.006     1692.0           3165000200070 
     390.67       0.06      0.128      0.003      741.0           3165000200071 
     397.61       0.34      0.024      0.004                      3165000200072 
     401.00       0.38      0.021      0.004     1217.0           3165000200073 
     405.65       0.26      0.028      0.003     1272.0           3165000200074 
     411.28       0.23      0.041      0.004      776.0           3165000200075 
     419.87       0.18      0.045      0.004     1272.0           3165000200076 
     423.99       0.14      0.385      0.028     1308.0           3165000200077 
     424.95       0.14      0.036      0.029                      3165000200078 
     428.47       0.07      0.151      0.004      861.0           3165000200079 
     432.46       0.52      0.021      0.006      432.0           3165000200080 
     438.86       0.20      0.039      0.004      640.0           3165000200081 
     446.60       0.15      0.063      0.005     1331.0           3165000200082 
     449.64       0.16      0.064      0.004     1308.0           3165000200083 
     451.61       0.34      0.031      0.005      884.0           3165000200084 
     455.20       0.14      0.051      0.005     1347.0           3165000200085 
     465.78       0.11      0.116      0.004      816.0           3165000200086 
     467.57       0.31      0.046      0.004     1331.0           3165000200087 
     469.37       0.29      0.044      0.005     1272.0           3165000200088 
     474.07       0.02      0.545      0.004      884.0           3165000200089 
     489.39       0.10      0.092      0.004     1373.0           3165000200090 
     492.31       0.27      0.034      0.004     1384.0           3165000200091 
     495.19       0.07      0.140      0.004     1347.0           3165000200092 
     500.07       0.04      0.438      0.007      803.0           3165000200093 
     517.46       0.26      0.034      0.004     1384.0           3165000200094 
     522.21       0.39      0.022      0.004     1502.0           3165000200095 
     528.15       0.05      0.260      0.005      960.0           3165000200096 
     531.33       0.03      0.499      0.006     1347.0           3165000200097 
     533.69       0.08      0.156      0.007      884.0           3165000200098 
     537.00       0.24      0.079      0.007                      3165000200099 
     538.52       0.32      0.120      0.012                      3165000200100 
     539.73       0.22      0.164      0.012      972.0           3165000200101 
     541.32       0.08      0.195      0.005      892.0           3165000200102 
     545.96       0.80      0.115      0.030     1308.0           3165000200103 
     547.35       0.77      0.189      0.035     1432.0           3165000200104 
     548.68       0.53      0.194      0.033     1331.0           3165000200105 
     557.25       0.02      1.238      0.009      762.0           3165000200106 
     559.54       0.27      0.075      0.009      863.0           3165000200107 
     563.51       0.20      0.058      0.007      640.0           3165000200108 
     565.16       0.29      0.067      0.006     1347.0           3165000200109 
     567.13       0.15      0.111      0.005     1308.0           3165000200110 
     569.16       0.25      0.078      0.006                      3165000200111 
     570.80       0.49      0.038      0.006                      3165000200112 
     577.39       0.02      1.954      0.011      782.0           3165000200113 
     588.75       0.06      0.172      0.007      892.0           3165000200114 
     590.71       0.45      0.041      0.006                      3165000200115 
     592.57       0.58      0.032      0.009     1502.0           3165000200116 
     598.54       0.08      0.161      0.006      803.0           3165000200117 
     601.90       0.12      0.116      0.007     1384.0           3165000200118 
     605.64       0.12      0.102      0.005      909.0           3165000200119 
     608.89       0.39      0.017      0.006                      3165000200120 
     611.31       0.03      0.619      0.007      816.0           3165000200121 
     612.88       0.19      0.103      0.007     1944.0           3165000200122 
     616.40       0.09      0.649      0.022      762.0           3165000200123 
     620.67       2.91      0.014      0.024                      3165000200124 
     624.23       0.67      0.070      0.018                      3165000200125 
     628.97       0.06      0.236      0.006      979.0           3165000200126 
     632.56       0.35      0.034      0.008     1415.0           3165000200127 
     635.28       0.14      0.255      0.013      840.0           3165000200128 
     636.52       0.38      0.095      0.013      782.0           3165000200129 
     640.23       0.22      0.135      0.024      640.0           3165000200130 
     640.88       0.37      0.077      0.025                      3165000200131 
     647.44       0.04      0.212      0.004      852.0           3165000200132 
     650.70       0.18      0.049      0.004      852.0           3165000200133 
     655.90       0.06      0.458      0.009      861.0           3165000200134 
     657.52       0.04      0.820      0.009      803.0           3165000200135 
     659.20       0.12      0.200      0.008      861.0           3165000200136 
     661.65       0.07      0.267      0.009      863.0           3165000200137 
     663.68       0.73      0.144      0.049      741.0           3165000200138 
     664.73       2.16      0.048      0.054                      3165000200139 
     670.41       0.04      0.477      0.008      816.0           3165000200140 
     676.82       0.10      0.092      0.005      882.0           3165000200141 
     680.15       0.28      0.033      0.006      882.0           3165000200142 
     690.42       0.69      0.018      0.007      892.0           3165000200143 
     694.38       0.03      0.508      0.006      840.0           3165000200144 
     697.99       0.23      0.054      0.005                      3165000200145 
     703.67       0.35      0.072      0.008                      3165000200146 
     705.49       1.12      0.072      0.030                      3165000200147 
     706.69       0.21      0.384      0.031      852.0           3165000200148 
     709.32       0.29      0.070      0.010      915.0           3165000200149 
     713.24       1.12      0.063      0.028      915.0           3165000200150 
     714.68       2.88      0.053      0.088     1018.0           3165000200151 
     717.40       0.43      0.045      0.011      863.0           3165000200152 
     720.25       0.27      0.040      0.005     1937.0           3165000200153 
     725.99       0.04      0.219      0.005      803.0           3165000200154 
     729.40       0.40      0.038      0.005     1613.0           3165000200155 
     730.96       0.42      0.036      0.005     1613.0           3165000200156 
     738.95       0.05      0.388      0.007      816.0           3165000200157 
     746.07       0.17      0.509      0.050      892.0           3165000200158 
     748.47       0.28      0.064      0.007     1565.0           3165000200159 
     755.68       0.59      0.024      0.007      960.0           3165000200160 
     759.01       0.19      0.075      0.006      960.0           3165000200161 
     762.87       0.04      0.448      0.007      840.0           3165000200162 
     766.81       0.34      0.033      0.005      872.0           3165000200163 
     770.60       0.32      0.098      0.012      872.0           3165000200164 
     774.95       0.10      0.355      0.012      852.0           3165000200165 
     778.25       0.65      0.033      0.012      979.0           3165000200166 
     782.25       0.06      1.359      0.030      782.0           3165000200167 
     783.53       0.41      0.183      0.027      861.0           3165000200168 
     785.84       0.16      0.165      0.007      863.0           3165000200169 
     787.69       0.18      0.250      0.011      989.0           3165000200170 
     789.23       0.07      0.536      0.012      867.0           3165000200171 
     796.66       0.30      0.040      0.005                      3165000200172 
     803.35       0.07      0.285      0.007      803.0           3165000200173 
     807.70       0.34      0.053      0.006     1692.0           3165000200174 
     813.78       0.30      0.299      0.043     1018.0           3165000200175 
     814.87       0.39      0.253      0.040      892.0           3165000200176 
     816.31       0.04      0.893      0.010      816.0           3165000200177 
     831.69       0.06      0.483      0.010      909.0           3165000200178 
     833.57       0.24      0.268      0.018      979.0           3165000200179 
     834.96       0.71      0.057      0.018     1267.0           3165000200180 
     837.33       0.16      0.134      0.007      915.0           3165000200181 
     840.20       0.02      1.555      0.010      840.0           3165000200182 
     846.68       0.69      0.021      0.006                      3165000200183 
     852.27       0.06      0.318      0.006      852.0           3165000200184 
     860.85       0.14      0.197      0.015      861.0           3165000200185 
     862.39       1.38      0.132      0.104     1997.0           3165000200186 
     863.42       1.10      0.241      0.102      863.0           3165000200187 
     865.45       2.03      0.125      0.189     1706.0           3165000200188 
     866.59       0.20      0.518      0.051      867.0           3165000200189 
     872.70       0.04      0.369      0.005     1018.0           3165000200190 
     877.42       0.06      0.328      0.007     1082.0           3165000200191 
     879.60       0.14      0.021      0.006     1974.0           3165000200192 
     881.63       0.05      0.443      0.006      882.0           3165000200193 
     889.40       0.07      0.261      0.006     1094.0           3165000200194 
     891.89       0.02      0.934      0.006      892.0           3165000200195 
     894.59       0.10      0.164      0.007      972.0           3165000200196 
     902.59       0.61      0.019      0.004                      3165000200197 
     908.98       0.34      0.962      0.195      909.0           3165000200198 
     909.98       6.22      0.051      0.199                      3165000200199 
     911.87       0.23      0.185      0.021      989.0           3165000200200 
     914.07       0.59      0.191      0.064     1217.0           3165000200201 
     915.08       0.94      0.128      0.065      915.0           3165000200202 
     921.97       0.39      0.033      0.005                      3165000200203 
     928.84       1.25      0.029      0.013                      3165000200204 
