ENTRY            32807   20241011                             32153280700000001 
SUBENT        32807001   20241011                             32153280700100001 
BIB                 12         56                                 3280700100002 
TITLE      Measurement of the neutron total cross section of      3280700100003 
           carbon at the Back-n white neutron beam of CSNS        3280700100004 
AUTHOR     (Xing-Yan Liu,Yi-Wei Yang,Rong Liu,Jie Wen,            3280700100005 
           Zhong-Wei Wen,Zi-Jie Han,Zhi-Zhou Ren,Qi An,           3280700100006 
           Huai-Yong Bai,Jie Bao,Ping Cao, Qi-Ping Chen,          3280700100007 
           Yong-Hao Chen,Pin-Jing Cheng,Zeng-Qi Cui,Rui-Rui Fan,  3280700100008 
           Chang-Qing Feng,Min-Hao Gu,Feng-Qin Guo,Chang-Cai Han, 3280700100009 
           Guo-Zhu He,Yong-Cheng He,Yue-Feng He,Han-Xiong Huang,  3280700100010 
           Wei-Ling Huang,Xi-Ru Huang,Xiao-Lu Ji,Xu-Yang Ji,      3280700100011 
           Hao-Yu Jiang,Wei Jiang,Han-Tao Jing,Ling Kang,         3280700100012 
           Ming-Tao Kang,Bo Li,Lun Li, Qiang Li,Xiao Li,Yang Li,  3280700100013 
           Yang Li,Shu-Bin Liu,Guang-Yuan Luan,Ying-Lin Ma,       3280700100014 
           Chang-Jun Ning,Bin-Bin Qi,Jie Ren,Xi-Chao Ruan,        3280700100015 
           Zhao-Hui Song,Hong Sun,Xiao-Yang Sun,Zhi-Jia Sun,      3280700100016 
           Zhi-Xin Tan,Hong-Qing Tang,Jing-Yu Tang,               3280700100017 
           Peng-Cheng Wang,Qi Wang, Tao-Feng Wang,Yan-Feng Wang,  3280700100018 
           Zhao-Hui Wang,Zheng Wang,Qing-Biao Wu,Xiao-Guang Wu,   3280700100019 
           Xuan Wu,Li-Kun Xie,Han Yi,Li Yu, Tao Yu,Yong-Ji Yu,    3280700100020 
           Guo-Hui Zhang,Jing Zhang,Lin-Hao Zhang, Li-Ying Zhang, 3280700100021 
           Qing-Min Zhang,Qi-Wei Zhang,Xian-Peng Zhang,           3280700100022 
           Yu-Liang Zhang,Zhi-Yong Zhang,Ying-Tan Zhao,           3280700100023 
           Liang Zhou,Zu-Ying Zhou,Dan-Yang Zhu,Ke-Jun Zhu,       3280700100024 
           Peng Zhu)                                              3280700100025 
INSTITUTE  (3CPRNPC,3CPRHST,3CPRBJG,3CPRAEP,3CPRIHP,3CPRNIX,      3280700100026 
           3CPRBHN)                                               3280700100027 
           (3CPRCPR) State Key Laboratory of Particle Detection   3280700100028 
           and Electronics, Chinese Academy of Sciences (CAS),    3280700100029 
           Beijing                                                3280700100030 
           (3CPRCPR) Spallation Neutron Source Science Center,    3280700100031 
           Dongguan                                               3280700100032 
           (3CPRCPR) University of South China, Hengyang          3280700100033 
           (3CPRCPR) Xian Jiaotong University, Xian               3280700100034 
REFERENCE  (J,CNST,30,139,2019)                                   3280700100035 
           #doi:10.1007/s41365-019-0660-9                         3280700100036 
FACILITY   (SYNCH,3CPRIHP) Back-n white neutron source of China   3280700100037 
           Spallation Neutron Source (CSNS)                       3280700100038 
INC-SOURCE (SPALL) Neutrons are produced via 1.6 GeV proton-      3280700100039 
           induced spallation reactions on a Tungsten target.     3280700100040 
           The incident proton pulse was in double-bunch mode,    3280700100041 
           about 50 ns (FWHM) wide and 410 ns apart.              3280700100042 
SAMPLE     A cylindrical natural graphite sample with diameter    3280700100043 
           of 70.07 +- 0.02 mm, thickness of 40.03 +- 0.02 mm     3280700100044 
           and mass of 287.79 +- 0.01 g. The calculated density   3280700100045 
           of the sample was 1.86 g/cm3.                          3280700100046 
DETECTOR   (FISCH) A multilayer fast ionization chamber is        3280700100047 
           located in the neutron beam line at Endstation 2.      3280700100048 
           Three 235U and three 238U cells are located in the     3280700100049 
           detector.                                              3280700100050 
METHOD     (TOF) A flight path about 76 m.                        3280700100051 
ERR-ANALYS (ERR-S) The uncertainty of the counting statistics is  3280700100052 
           generally approximately 3% for each bin in the energy  3280700100053 
           range of 1-20 MeV.                                     3280700100054 
STATUS     (TABLE,,Xingyan Liu+,J,CNST,30,139,2019)               3280700100055 
            Data presented by author                              3280700100056 
HISTORY    (20241210R) The data received from Xing-Yan Liu        3280700100057 
           (20241011C) Jimin Wang (CNDC)                          3280700100058 
ENDBIB              56          0                                 3280700100059 
NOCOMMON             0          0                                 3280700100060 
ENDSUBENT           59          0                                 3280700199999 
SUBENT        32807002   20241011                             32153280700200001 
BIB                  3          3                                 3280700200002 
REACTION   (6-C-0(N,TOT),,SIG)                                    3280700200003 
COMMENT    The measured results with 235U cells                   3280700200004 
STATUS     (COREL,32807003) Data measured with 238U cells         3280700200005 
ENDBIB               3          0                                 3280700200006 
NOCOMMON             0          0                                 3280700200007 
DATA                 3        751                                 3280700200008 
EN         DATA       ERR-S                                       3280700200009 
EV         B          PER-CENT                                    3280700200010 
  1.001E+00    4.87946       1.80                                 3280700200011 
  1.024E+00    4.67405       1.76                                 3280700200012 
  1.048E+00    4.78497       1.62                                 3280700200013 
  1.073E+00    4.85710       1.54                                 3280700200014 
  1.098E+00    4.81349       1.53                                 3280700200015 
  1.123E+00    4.78548       1.67                                 3280700200016 
  1.149E+00    4.75613       1.94                                 3280700200017 
  1.176E+00    4.77173       2.35                                 3280700200018 
  1.204E+00    4.88666       2.72                                 3280700200019 
  1.232E+00    5.02888       3.11                                 3280700200020 
  1.260E+00    5.07968       2.90                                 3280700200021 
  1.290E+00    4.53944       3.48                                 3280700200022 
  1.320E+00    4.72830       3.71                                 3280700200023 
  1.351E+00    4.86477       3.62                                 3280700200024 
  1.382E+00    4.76001       3.55                                 3280700200025 
  1.414E+00    4.78502       3.76                                 3280700200026 
  1.447E+00    4.62963       4.05                                 3280700200027 
  1.481E+00    4.76792       4.05                                 3280700200028 
  1.515E+00    5.06704       3.73                                 3280700200029 
  1.551E+00    4.79940       4.17                                 3280700200030 
  1.587E+00    5.17181       3.84                                 3280700200031 
  1.624E+00    4.75820       4.27                                 3280700200032 
  1.661E+00    4.81222       4.10                                 3280700200033 
  1.700E+00    5.08205       3.99                                 3280700200034 
  1.740E+00    4.78759       4.44                                 3280700200035 
  1.780E+00    4.86747       3.88                                 3280700200036 
  1.822E+00    4.83415       3.99                                 3280700200037 
  1.864E+00    4.64282       4.21                                 3280700200038 
  1.908E+00    4.51140       3.95                                 3280700200039 
  1.952E+00    4.57323       3.23                                 3280700200040 
  1.998E+00    4.92951       3.42                                 3280700200041 
  2.044E+00    4.69109       4.61                                 3280700200042 
  2.092E+00    5.02019       4.29                                 3280700200043 
  2.140E+00    4.80720       4.66                                 3280700200044 
  2.190E+00    4.80535       4.98                                 3280700200045 
  2.241E+00    4.67613       4.96                                 3280700200046 
  2.294E+00    5.06599       4.75                                 3280700200047 
  2.347E+00    5.27756       4.51                                 3280700200048 
  2.402E+00    5.21486       4.87                                 3280700200049 
  2.458E+00    4.70850       5.76                                 3280700200050 
  2.515E+00    5.21240       5.28                                 3280700200051 
  2.573E+00    5.02822       5.87                                 3280700200052 
  2.633E+00    4.96240       5.66                                 3280700200053 
  2.695E+00    5.24243       4.05                                 3280700200054 
  2.757E+00    4.80839       3.87                                 3280700200055 
  2.822E+00    4.79625       3.59                                 3280700200056 
  2.887E+00    5.02243       3.25                                 3280700200057 
  2.955E+00    5.11820       2.58                                 3280700200058 
  3.023E+00    4.86488       2.25                                 3280700200059 
  3.094E+00    4.61610       2.87                                 3280700200060 
  3.166E+00    4.87054       3.91                                 3280700200061 
  3.240E+00    4.89157       3.93                                 3280700200062 
  3.315E+00    4.83008       4.06                                 3280700200063 
  3.392E+00    4.85896       2.71                                 3280700200064 
  3.471E+00    4.56863       2.19                                 3280700200065 
  3.552E+00    4.83304       2.84                                 3280700200066 
  3.635E+00    4.71033       7.19                                 3280700200067 
  3.720E+00    4.53690      11.86                                 3280700200068 
  3.806E+00    5.95174       9.25                                 3280700200069 
  3.895E+00    4.60595      13.56                                 3280700200070 
  3.986E+00    4.43341      11.12                                 3280700200071 
  4.078E+00    4.65514      12.33                                 3280700200072 
  4.173E+00    4.85568      11.72                                 3280700200073 
  4.271E+00    4.97959      13.56                                 3280700200074 
  4.370E+00    4.49549      10.08                                 3280700200075 
  4.472E+00    4.46099       8.45                                 3280700200076 
  4.576E+00    4.34277       6.69                                 3280700200077 
  4.683E+00    4.54204       4.12                                 3280700200078 
  4.792E+00    4.89237       6.82                                 3280700200079 
  4.903E+00    5.25545       5.78                                 3280700200080 
  5.018E+00    4.85413       5.08                                 3280700200081 
  5.135E+00    5.00849       4.17                                 3280700200082 
  5.254E+00    4.95431       3.51                                 3280700200083 
  5.377E+00    4.68552       3.72                                 3280700200084 
  5.502E+00    5.11241       3.40                                 3280700200085 
  5.630E+00    4.71656       3.59                                 3280700200086 
  5.761E+00    4.75344       3.11                                 3280700200087 
  5.895E+00    5.00849       2.23                                 3280700200088 
  6.033E+00    4.93000       1.83                                 3280700200089 
  6.173E+00    4.64117       1.49                                 3280700200090 
  6.317E+00    4.96972       3.15                                 3280700200091 
  6.464E+00    4.94374       6.03                                 3280700200092 
  6.615E+00    4.93381       4.98                                 3280700200093 
  6.769E+00    4.70766       2.24                                 3280700200094 
  6.926E+00    4.75149       2.59                                 3280700200095 
  7.088E+00    4.86279       6.64                                 3280700200096 
  7.253E+00    4.63398      10.08                                 3280700200097 
  7.422E+00    5.11763      10.10                                 3280700200098 
  7.595E+00    4.48518      10.24                                 3280700200099 
  7.771E+00    4.72949       7.46                                 3280700200100 
  7.952E+00    5.02681       3.86                                 3280700200101 
  8.138E+00    4.82158       2.36                                 3280700200102 
  8.327E+00    4.70797       0.92                                 3280700200103 
  8.521E+00    4.84253       0.61                                 3280700200104 
  8.720E+00    4.83545       1.17                                 3280700200105 
  8.923E+00    4.86665       1.38                                 3280700200106 
  9.131E+00    4.91131       1.85                                 3280700200107 
  9.343E+00    4.87025       2.47                                 3280700200108 
  9.561E+00    4.82152       3.29                                 3280700200109 
  9.784E+00    4.80570       2.88                                 3280700200110 
  1.001E+01    4.81732       3.75                                 3280700200111 
  1.024E+01    4.80240       3.83                                 3280700200112 
  1.048E+01    4.88397       3.90                                 3280700200113 
  1.073E+01    5.02376       3.69                                 3280700200114 
  1.098E+01    4.58646       3.38                                 3280700200115 
  1.123E+01    4.72251       1.89                                 3280700200116 
  1.149E+01    4.86787       3.06                                 3280700200117 
  1.176E+01    4.87746       1.37                                 3280700200118 
  1.204E+01    4.74087       0.94                                 3280700200119 
  1.232E+01    4.82342       2.54                                 3280700200120 
  1.260E+01    4.63005       3.14                                 3280700200121 
  1.290E+01    4.84065       2.73                                 3280700200122 
  1.320E+01    4.80769       2.05                                 3280700200123 
  1.351E+01    4.90389       1.50                                 3280700200124 
  1.382E+01    4.90541       1.83                                 3280700200125 
  1.414E+01    4.91491       2.67                                 3280700200126 
  1.447E+01    4.77883       4.04                                 3280700200127 
  1.481E+01    4.67666       2.12                                 3280700200128 
  1.515E+01    4.74300       3.94                                 3280700200129 
  1.551E+01    5.16885       1.85                                 3280700200130 
  1.587E+01    4.83698       2.57                                 3280700200131 
  1.624E+01    4.86447       1.95                                 3280700200132 
  1.661E+01    4.68800       4.61                                 3280700200133 
  1.700E+01    4.67440       3.78                                 3280700200134 
  1.740E+01    5.08292       1.45                                 3280700200135 
  1.780E+01    4.79208       2.79                                 3280700200136 
  1.822E+01    4.75311       1.88                                 3280700200137 
  1.864E+01    4.58825       0.85                                 3280700200138 
  1.908E+01    4.89298       2.29                                 3280700200139 
  1.952E+01    4.75082       3.29                                 3280700200140 
  1.998E+01    4.95275       2.30                                 3280700200141 
  2.044E+01    4.94785       1.60                                 3280700200142 
  2.092E+01    4.81243       6.65                                 3280700200143 
  2.140E+01    5.18264       7.53                                 3280700200144 
  2.190E+01    5.08442       2.56                                 3280700200145 
  2.241E+01    4.91903       1.78                                 3280700200146 
  2.294E+01    4.87410       1.62                                 3280700200147 
  2.347E+01    4.82630       1.96                                 3280700200148 
  2.402E+01    4.82372       2.10                                 3280700200149 
  2.458E+01    4.84077       1.55                                 3280700200150 
  2.515E+01    4.71155       2.54                                 3280700200151 
  2.573E+01    4.69963       2.13                                 3280700200152 
  2.633E+01    4.90082       3.44                                 3280700200153 
  2.695E+01    5.00849       1.94                                 3280700200154 
  2.757E+01    4.77978       2.99                                 3280700200155 
  2.822E+01    4.94052       4.97                                 3280700200156 
  2.887E+01    4.64544       4.16                                 3280700200157 
  2.955E+01    4.66411       2.30                                 3280700200158 
  3.023E+01    4.88773       3.31                                 3280700200159 
  3.094E+01    4.76333       1.23                                 3280700200160 
  3.166E+01    4.82971       3.72                                 3280700200161 
  3.240E+01    4.64088       1.55                                 3280700200162 
  3.315E+01    4.83402       1.18                                 3280700200163 
  3.392E+01    4.78204       0.93                                 3280700200164 
  3.471E+01    4.82459       2.23                                 3280700200165 
  3.552E+01    4.89778       3.20                                 3280700200166 
  3.635E+01    4.95708       3.23                                 3280700200167 
  3.720E+01    4.64364       2.83                                 3280700200168 
  3.806E+01    4.93918       1.47                                 3280700200169 
  3.895E+01    4.89245       2.44                                 3280700200170 
  3.986E+01    4.79374       1.82                                 3280700200171 
  4.078E+01    4.62561       1.97                                 3280700200172 
  4.173E+01    4.82375       2.51                                 3280700200173 
  4.271E+01    4.62674       2.04                                 3280700200174 
  4.370E+01    4.66258       2.68                                 3280700200175 
  4.472E+01    4.74401       2.59                                 3280700200176 
  4.576E+01    4.65568       2.14                                 3280700200177 
  4.683E+01    4.83652       1.76                                 3280700200178 
  4.792E+01    4.87787       2.05                                 3280700200179 
  4.903E+01    4.87557       1.06                                 3280700200180 
  5.018E+01    4.78283       1.04                                 3280700200181 
  5.135E+01    4.86283       1.81                                 3280700200182 
  5.254E+01    4.85127       1.56                                 3280700200183 
  5.377E+01    4.86808       0.89                                 3280700200184 
