ENTRY            41404   20131226                             41624140400000001 
SUBENT        41404001   20131226                             41624140400100001 
BIB                 14         32                                 4140400100002 
TITLE       Multipole mixtures in gamma-transitions in 158GD from 4140400100003 
            the (n,n'gamma) reaction                              4140400100004 
AUTHOR     (L.I.Govor, A.M.Demidov, I.V.Mikhailov)                4140400100005 
INSTITUTE  (4RUSKUR)                                              4140400100006 
REFERENCE  (J,YF,64,(7),1329,200107)  Main reference, data given  4140400100007 
           (J,PAN,64,1254,2001) Engl.translation of YF,64,(7),13294140400100008 
REL-REF    (M,,A.M.Demidov,B,DEMIDOV,,70,1986) Exp. details       4140400100009 
           (M,41234001,L.I.Govor+,J,YF,59,(10),1733,199610)       4140400100010 
                                         experimental details     4140400100011 
           (M,,L.I.Govor+,J,PAN,59,1675,1996)                     4140400100012 
            Engl.translation of J,YF,59,(10),1733,1996            4140400100013 
FACILITY   (REAC,4RUSKUR)  IR-8 reactor of 4RUSKUR                4140400100014 
INC-SOURCE (REAC)                                                 4140400100015 
INC-SPECT   Fast neutron spectrum of the thermal reactor .        4140400100016 
DETECTOR   (HPGE)   Germanium detectors, efficiency 10%,          4140400100017 
                    resolution 2.1 keV at E-Gamma=1.3 MeV         4140400100018 
           (COMPL)  Compton polarimeter for polarization          4140400100019 
                    measurement                                   4140400100020 
MONITOR    (64-GD-158(N,INL)64-GD-158,,SPC) At E-Gamma=1663.54keV 4140400100021 
COMMENT           Gamma energy was measured at the angle 90 deg   4140400100022 
                  relative to neutron beam, intensity measured at 4140400100023 
                  125 deg.                                        4140400100024 
SAMPLE     .Gadolinium oxide Gd(2)O(3), mass 23. gram,            4140400100025 
            Gd-158 enrichment is 97.3 % , thickness 1.13 gram/cm2 4140400100026 
            Gd-155 content is 0.17%, Gd-156 content is 0.33%,     4140400100027 
            Gd-157 content is 0.78%, Gd-160 content is 1.42%.     4140400100028 
ERR-ANALYS (DATA-ERR)  Error not specified                        4140400100029 
HISTORY    (20020712C)  + + Compiled at the Centre - CJD + +      4140400100030 
           (20020717U) Last checking has been done.               4140400100031 
           (20131226A) Refs. of Engl.translations were added.     4140400100032 
           Upper -> lower case corrections.                       4140400100033 
           BIB information was updated.                           4140400100034 
ENDBIB              32          0                                 4140400100035 
COMMON               2          3                                 4140400100036 
EN-DUMMY   E-NRM                                                  4140400100037 
EV         KEV                                                    4140400100038 
     1.E+06   1663.54                                             4140400100039 
ENDCOMMON            3          0                                 4140400100040 
ENDSUBENT           39          0                                 4140400199999 
SUBENT        41404002   20131226                             41624140400200001 
BIB                  5         17                                 4140400200002 
REACTION   ((64-GD-158(N,INL)64-GD-158,,SPC,,FIS)//               4140400200003 
           (64-GD-158(N,INL)64-GD-158,,SPC,,FIS))  Relative to    4140400200004 
            181.94 kev gamma line taken for 100. Gamma-energy     4140400200005 
            measured at 90 degrees, gamma intensity - at 125      4140400200006 
            degrees relative to neutron beam .                    4140400200007 
           DATA and DATA-ERR were multiplied by 1.E-2 by compiler.4140400200008 
EN-SEC     (E-DN,G)                                               4140400200009 
           (E-NM,G)                                               4140400200010 
            LVL-INI initial level of 64-GD-158                    4140400200011 
ERR-ANALYS  E-DN-ERR -    Error in denominator gamma-energy       4140400200012 
FLAG       (1.)     Initial energy known uncertainly              4140400200013 
           (2.)     Multiplet                                     4140400200014 
           (3.)     Uncertain multiplet                           4140400200015 
           (4.)     Approximate value                             4140400200016 
           (5.)     Approximate gamma energy                      4140400200017 
           (6.)     Line from 158GD + 159GD                       4140400200018 
STATUS     (TABLE) Table 1 of J,YF,64,(7),1329,2001               4140400200019 
ENDBIB              17          0                                 4140400200020 
COMMON               2          3                                 4140400200021 
E-DN       E-DN-ERR                                               4140400200022 
KEV        KEV                                                    4140400200023 
   181.94    0.02                                                 4140400200024 
ENDCOMMON            3          0                                 4140400200025 
DATA                 9        356                                 4140400200026 
E-NM       E-NM-ERR   DATA       DATA-ERR   DATA-MAX   LVL-INI    4140400200027 
LVL-INI    FLAG       FLAG                                        4140400200028 
KEV        KEV        NO-DIM     NO-DIM     NO-DIM     KEV        4140400200029 
KEV        NO-DIM     NO-DIM                                      4140400200030 
 135.25          0.14    0.26 E-2   0.02 E-2               1159.  4140400200031 
                                                                  4140400200032 
 155.09          0.18    0.20 E-2   0.02 E-2               1636.  4140400200033 
               1.                                                 4140400200034 
 181.94          0.02    1.                                 261.  4140400200035 
                                                                  4140400200036 
 212.98          0.06    0.62 E-2   0.04 E-2               1372.  4140400200037 
                                                                  4140400200038 
 218.01          0.07    0.49 E-2   0.04 E-2               1717.  4140400200039 
                                                                  4140400200040 
 230.14          0.12    0.21 E-2   0.02 E-2               1407.  4140400200041 
                                                                  4140400200042 
 235.42          0.09    0.48 E-2   0.04 E-2               1717.  4140400200043 
                                                                  4140400200044 
 255.65          0.02    3.18 E-2   0.22 E-2               1636.  4140400200045 
                                                                  4140400200046 
 277.54          0.02   17.0  E-2   1.2  E-2                539.  4140400200047 
                                                                  4140400200048 
 282.75          0.08    0.38 E-2   0.03 E-2               1260.  4140400200049 
                                                                  4140400200050 
 301.1           0.2                            0.08       2018.  4140400200051 
                                                                  4140400200052 
 314.9           0.2                            0.08       1814.  4140400200053 
                                                                  4140400200054 
 332.65          0.11    0.115E-2   0.014E-2               1814.  4140400200055 
                                                                  4140400200056 
 336.21          0.05    0.51 E-2   0.04 E-2               1717.  4140400200057 
                                                                  4140400200058 
 339.14          0.10    0.20 E-2   0.02 E-2               1381.  4140400200059 
                                                                  4140400200060 
 341.75          0.14    0.104E-2   0.014E-2                      4140400200061 
                                                                  4140400200062 
 365.10          0.03    1.87 E-2   0.16 E-2                904.  4140400200063 
  1407.            2.                                             4140400200064 
 408.63          0.12    0.32 E-2   0.03 E-2                      4140400200065 
                                                                  4140400200066 
 410.75          0.19    0.20 E-2   0.02 E-2                      4140400200067 
                                                                  4140400200068 
 417.90          0.11    0.20 E-2   0.02 E-2               1917.  4140400200069 
                                                                  4140400200070 
 435.48          0.14    0.30 E-2   0.03 E-2               1917.  4140400200071 
                                                                  4140400200072 
 439.21          0.07    0.45 E-2   0.04 E-2                      4140400200073 
                                                                  4140400200074 
 444.87          0.25    0.080E-2   0.016E-2                      4140400200075 
                                                                  4140400200076 
 455.1           0.3     0.109E-2   0.013E-2               1954.  4140400200077 
              1.                                                  4140400200078 
 466.65          0.13    0.19 E-2   0.02 E-2               2260.  4140400200079 
                                                                  4140400200080 
 475.64          0.15    0.15 E-2   0.02 E-2               1452.  4140400200081 
   1517.           2.        1.                                   4140400200082 
 479.71          0.09    0.22 E-2   0.02 E-2               1743.  4140400200083 
                                                                  4140400200084 
 502.85          0.12    0.27 E-2   0.02 E-2               1862.  4140400200085 
              4.                                                  4140400200086 
 518.55          0.18    0.30 E-2   0.03 E-2               2018.  4140400200087 
               4.                                                 4140400200088 
 524.77          0.17    0.116E-2   0.013E-2                      4140400200089 
                                                                  4140400200090 
 528.13          0.04    0.67 E-2   0.05 E-2               1792.  4140400200091 
      1794.        2.                                             4140400200092 
 537.05          0.08    0.51 E-2   0.04 E-2                      4140400200093 
                                                                  4140400200094 
 539.58          0.05    1.05 E-2   0.08 E-2               1920.  4140400200095 
                                                                  4140400200096 
 546.4           0.3     0.057E-2   0.011E-2                      4140400200097 
                                                                  4140400200098 
 558.20          0.10    0.28 E-2   0.02 E-2                      4140400200099 
                                                                  4140400200100 
 587.43          0.15    0.26 E-2   0.02 E-2                      4140400200101 
                                                                  4140400200102 
 592.87          0.17    0.0                               1856.  4140400200103 
              5.                                                  4140400200104 
 606.52          0.04    1.40 E-2   0.11 E-2               1794.  4140400200105 
                                                                  4140400200106 
 619.4           0.2     0.134E-2   0.16 E-2               1978.  4140400200107 
                                                                  4140400200108 
 622.5           0.3     0.031E-2   0.010E-2                      4140400200109 
                                                                  4140400200110 
 631.31          0.12    0.16 E-2   0.02 E-2               1895.  4140400200111 
                                                                  4140400200112 
 637.46          0.03    1.57 E-2   0.12 E-2               1176.  4140400200113 
                                                                  4140400200114 
 646.47          0.11    0.22 E-2   0.02 E-2               2049.  4140400200115 
                                                                  4140400200116 
 654.1           0.2     0.18 E-2   0.02 E-2                      4140400200117 
                                                                  4140400200118 
 670.0           0.4     0.099E-2   0.017E-2               1856.  4140400200119 
                                                                  4140400200120 
 672.30          0.07    0.72 E-2   0.06 E-2                      4140400200121 
                                                                  4140400200122 
 674.31          0.08    0.52 E-2   0.04 E-2               1862.  4140400200123 
                                                                  4140400200124 
 676.3           0.2     0.162E-2   0.019E-2               1941.  4140400200125 
              6.                                                  4140400200126 
 680.85          0.11    0.35 E-2   0.03 E-2               2084.  4140400200127 
                                                                  4140400200128 
 688.74          0.05    1.07 E-2   0.08 E-2               1952.  4140400200129 
      1954.        2.                                             4140400200130 
 698.88          0.14    0.33 E-2   0.03 E-2               1964.  4140400200131 
                                                                  4140400200132 
 701.2           0.3     0.19 E-2   0.02 E-2                      4140400200133 
                                                                  4140400200134 
 707.82          0.07    0.53 E-2   0.04 E-2               1895.  4140400200135 
                                                                  4140400200136 
 713.31          0.10    0.36 E-2   0.03 E-2                      4140400200137 
                                                                  4140400200138 
 725.3           0.4     0.068E-2   0.012E-2               1901.  4140400200139 
                                                                  4140400200140 
 735.36          0.07    0.61 E-2   0.05 E-2                      4140400200141 
                                                                  4140400200142 
 743.05          0.05    1.01 E-2   0.08 E-2               1930.  4140400200143 
                                                                  4140400200144 
 750.06          0.04    1.05 E-2   0.08 E-2               1792.  4140400200145 
                                                                  4140400200146 
 768.60          0.10    0.58 E-2   0.05 E-2               2034.  4140400200147 
                                                                  4140400200148 
 771.9           0.2     0.18 E-2   0.02 E-2                      4140400200149 
                                                                  4140400200150 
 777.34          0.17    0.161E-2   0.015E-2               1964.  4140400200151 
                                                                  4140400200152 
 780.16          0.02    7.0  E-2   0.5  E-2               1042.  4140400200153 
                                                                  4140400200154 
 782.65          0.08    0.50 E-2   0.04 E-2               1941.  4140400200155 
                                                                  4140400200156 
 785.66          0.13    0.21 E-2   0.02 E-2               2049.  4140400200157 
                                                                  4140400200158 
 790.97          0.12    0.35 E-2   0.03 E-2               1978.  4140400200159 
                                                                  4140400200160 
 795.0           0.2     0.27 E-2   0.02 E-2               1954.  4140400200161 
                                                                  4140400200162 
 800.1           0.5     0.054E-2   0.011E-2                      4140400200163 
                                                                  4140400200164 
 808.9           0.4                            0.05              4140400200165 
                                                                  4140400200166 
 814.69          0.08    0.43 E-2   0.04 E-2               1792.  4140400200167 
                                                                  4140400200168 
 816.45          0.12    0.31 E-2   0.03 E-2               1794.  4140400200169 
                                                                  4140400200170 
 820.01          0.06    0.67 E-2   0.06 E-2               1861.  4140400200171 
      2984.        2.                                             4140400200172 
 824.10          0.06    0.73 E-2   0.06 E-2               1848.  4140400200173 
                                                                  4140400200174 
 832.97          0.05    1.08 E-2   0.09 E-2               1372.  4140400200175 
      1856.        2.                                             4140400200176 
 836.3           0.3     0.137E-2   0.020E-2                      4140400200177 
                                                                  4140400200178 
 843.4           0.3     0.047E-2   0.010E-2                      4140400200179 
                                                                  4140400200180 
 847.13          0.18    0.23 E-2   0.03 E-2               2034.  4140400200181 
              1.                                                  4140400200182 
 851.15          0.05    0.89 E-2   0.07 E-2                      4140400200183 
                                                                  4140400200184 
 852.84          0.05    0.96 E-2   0.08 E-2               1894.  4140400200185 
                                                                  4140400200186 
 856.2           0.3     0.16 E-2   0.02 E-2                      4140400200187 
                                                                  4140400200188 
 859.83          0.11    0.45 E-2   0.04 E-2               1901.  4140400200189 
                                                                  4140400200190 
 865.94          0.11    0.0                                      4140400200191 
                                                                  4140400200192 
 867.90          0.04                          1.34        1407.  4140400200193 
                                                                  4140400200194 
 870.74          0.03    2.41 E-2   0.19 E-2               1848.  4140400200195 
      1894.        2.                                             4140400200196 
 874.9           0.2     0.23 E-2   0.02 E-2               2034.  4140400200197 
                                                                  4140400200198 
 879.28          0.05    0.80 E-2   0.06 E-2               1856.  4140400200199 
                                                                  4140400200200 
 884.7           0.3     0.138E-2   0.019E-2               1862.  4140400200201 
                                                                  4140400200202 
 887.51          0.14    0.22 E-2   0.02 E-2               2084.  4140400200203 
                                                                  4140400200204 
