ENTRY            41417   20131212                             41624141700000001 
SUBENT        41417001   20131212                             41624141700100001 
BIB                 13         32                                 4141700100002 
TITLE       Multipole mixtures gamma-transitions accompanying the 4141700100003 
           the (n,n'gamma) reaction on 162-Dy .                   4141700100004 
AUTHOR     (L.I.Govor,A.M.Demidov, V.A.Kurkin)                    4141700100005 
INSTITUTE  (4RUSKUR)                                              4141700100006 
REFERENCE  (J,YF,65,(5),819,2002)    Main reference, data given   4141700100007 
           (J,PAN,65,785,2002) Engl.translation of YF,65,(5),819  4141700100008 
REL-REF    (M,41234001,L.I.Govor+,J,YF,59,(10),1733,199610)       4141700100009 
            Exp. details                                          4141700100010 
           (M,,L.I.Govor+,J,PAN,59,1675,1996)                     4141700100011 
            Engl.translation of J,YF,59,(10),1733,1996            4141700100012 
           (M,,A.M.Demidov,B,DEMIDOV,,70,1986) Exp. details       4141700100013 
FACILITY   (REAC,4RUSKUR)  IR-8 Reactor of 4RUSKUR                4141700100014 
INC-SOURCE (REAC)                                                 4141700100015 
INC-SPECT   Fast neutron spectrum of the thermal reactor          4141700100016 
DETECTOR   (HPGE)   Germanium detectors, efficiency 10%,          4141700100017 
                    resolution 2.1 keV at E-gamma=1.3 MeV         4141700100018 
MONITOR    (66-DY-162(N,INL)66-DY-162,,SPC) At E-gamma=1195.109keV4141700100019 
COMMENT           Gamma energy was measured at the angle 90 deg   4141700100020 
                  relative to neutron beam, intensity was measured4141700100021 
                  at 125 deg.                                     4141700100022 
SAMPLE     .162-Dy2-O3 mass 10 gram, thickness 0.96 gram/cm2.     4141700100023 
            Dy-162 enrichment is 95.2 %                           4141700100024 
            Dy-161 abundance  is 0.95 %                           4141700100025 
            Dy-163            is 3.12 %                           4141700100026 
            Dy-164            is 0.73 %                           4141700100027 
HISTORY    (20030117C)  + + Compiled at the Centre - CJD + +      4141700100028 
           (20030117U) Last checking has been done.               4141700100029 
           (20131126A) M.M. Upper -> lower case correction.       4141700100030 
           Ref. J,YF,59,(10),1733,1996 was moved in REL-REF.      4141700100031 
           Ref. and REL-REF of Engl.translations were added.      4141700100032 
            STATUS was added in Subents 002-003.                  4141700100033 
            BIB information was updated.                          4141700100034 
ENDBIB              32          0                                 4141700100035 
COMMON               1          3                                 4141700100036 
EN-DUMMY                                                          4141700100037 
EV                                                                4141700100038 
     1.E+06                                                       4141700100039 
ENDCOMMON            3          0                                 4141700100040 
ENDSUBENT           39          0                                 4141700199999 
SUBENT        41417002   20131212                             41624141700200001 
BIB                  6         13                                 4141700200002 
REACTION   ((66-DY-162(N,INL)66-DY-162,,SPC,,FIS)//               4141700200003 
           (66-DY-162(N,INL)66-DY-162,,SPC,,FIS))  Relative to    4141700200004 
            185.001 keV gamma line taken for 100.                 4141700200005 
EN-SEC     (E-DN,G)                                               4141700200006 
           (E-NM,G)                                               4141700200007 
            LVL-INI - initial level of 66-DY-162                  4141700200008 
ANALYSIS    Energies were measured at 90 deg. angle,              4141700200009 
            relative intensities - at 125 deg.                    4141700200010 
ERR-ANALYS (DATA-ERR)  Error not specified                        4141700200011 
            E-DN-ERR - Error in denominator gamma-energy          4141700200012 
            E-NM-ERR - Error in nominator gamma-energy            4141700200013 
FLAG       (1.)   Initial level known indefinitely                4141700200014 
STATUS     (TABLE) Table 1 of J,YF,65,(5),819,2002                4141700200015 
ENDBIB              13          0                                 4141700200016 
COMMON               2          3                                 4141700200017 
E-DN       E-DN-ERR                                               4141700200018 
KEV        KEV                                                    4141700200019 
    185.001       0.04                                            4141700200020 
ENDCOMMON            3          0                                 4141700200021 
DATA                 8        271                                 4141700200022 
E-NM       E-NM-ERR   DATA       DATA-ERR   DATA-MAX   LVL-INI    4141700200023 
LVL-INI    FLAG                                                   4141700200024 
KEV        KEV        NO-DIM     NO-DIM     NO-DIM     KEV        4141700200025 
KEV        NO-DIM                                                 4141700200026 
  80.65         0.02      6.2 E-1    3.  E-2              80.6    4141700200027 
                                                                  4141700200028 
 114.0          0.4                             0.50E-2 1297.0    4141700200029 
                                                                  4141700200030 
 149.26         0.03                            0.90E-2           4141700200031 
                                                                  4141700200032 
 185.001        0.004     1.         5.  E-2             265.7    4141700200033 
                                                                  4141700200034 
 212.96         0.06      1.66E-2    0.10E-2            1570.8    4141700200035 
                                                                  4141700200036 
 220.08         0.24      0.26E-2    0.04E-2                      4141700200037 
                                                                  4141700200038 
 233.00         0.05      0.18E-2    0.06E-2            1530.0    4141700200039 
                 1.                                               4141700200040 
 235.98         0.08      1.41E-2    0.09E-2            1297.0    4141700200041 
                                                                  4141700200042 
 247.43         0.08      0.60E-2    0.10E-2            1210.1    4141700200043 
                                                                  4141700200044 
 258.17         0.05      1.5 E-2    0.2 E-2            1895.5    4141700200045 
                                                                  4141700200046 
 260.08         0.02      1.79E-1    0.9 E-2            1148.2    4141700200047 
                                                                  4141700200048 
 282.88         0.02      1.55E-1    0.8 E-2             548.5    4141700200049 
                                                                  4141700200050 
 289.4          0.3       0.16E-2    0.04E-2                      4141700200051 
                                                                  4141700200052 
 295.05         0.03      2.86E-2    0.15E-2            1570.8    4141700200053 
                                                                  4141700200054 
 311.22         0.05      1.20E-2    0.08E-2            1669.1    4141700200055 
                                                                  4141700200056 
 321.96         0.04      1.37E-2    0.08E-2            1210.1    4141700200057 
                                                                  4141700200058 
 329.7          0.3       0.20E-2    0.04E-2                      4141700200059 
                                                                  4141700200060 
 334.074        0.013     5.97E-2    0.30E-2            1297.0    4141700200061 
                                                                  4141700200062 
 347.49         0.05                            1.1 E-2 1408.5    4141700200063 
 1530.0          1.                                               4141700200064 
 361.4          0.3       0.19E-2    0.04E-2            1570.8    4141700200065 
 1637.3                                                           4141700200066 
 372.20         0.09      1.65E-2    0.10E-2             920.7    4141700200067 
                                                                  4141700200068 
 391.71         0.22      0.57E-2    0.05E-2            1574.3    4141700200069 
                                                                  4141700200070 
 411.4          1.1       0.09E-2    0.03E-2                      4141700200071 
                                                                  4141700200072 
 443.7          0.5       0.17E-2    0.05E-2                      4141700200073 
                                                                  4141700200074 
 451.99         0.22      0.33E-2    0.04E-2            1634.5    4141700200075 
                                                                  4141700200076 
 489.08         0.20      0.16E-2    0.04E-2                      4141700200077 
                                                                  4141700200078 
 523.5          0.3       0.24E-2    0.04E-2                      4141700200079 
                                                                  4141700200080 
 529.19         0.12      0.80E-2    0.06E-2            1739.1    4141700200081 
 1826.6                                                           4141700200082 
 542.1          0.5       0.19E-2    0.05E-2                      4141700200083 
                                                                  4141700200084 
 543.54         0.10      1.12E-2    0.08E-2            1691.4    4141700200085 
 1840.3                                                           4141700200086 
 551.1          0.6       0.27E-2    0.04E-2            1910.2    4141700200087 
                                                                  4141700200088 
 556.33         0.19      0.45E-2    0.05E-2            1766.4    4141700200089 
                                                                  4141700200090 
 565.77         0.22      0.27E-2    0.05E-2                      4141700200091 
                                                                  4141700200092 
 572.95         0.04      2.03E-2    0.11E-2            1535.7    4141700200093 
 1634.5                                                           4141700200094 
 588.8          0.5       0.12E-2    0.05E-2            1863.8    4141700200095 
                                                                  4141700200096 
 590.6          0.3       0.28E-2    0.05E-2            1739.1    4141700200097 
                                                                  4141700200098 
 610.93         0.22                            0.39E-2           4141700200099 
                                                                  4141700200100 
 616.2          0.5       0.17E-2    0.05E-2                      4141700200101 
                                                                  4141700200102 
 618.3          0.3       0.30E-2    0.06E-2            1766.4    4141700200103 
                                                                  4141700200104 
 622.40         0.14      0.38E-2    0.04E-2             888.2    4141700200105 
                                                                  4141700200106 
 630.48         0.22                            0.48E-2 1840.0    4141700200107 
                                                                  4141700200108 
 632.4          0.4       0.22E-2    0.05E-2                      4141700200109 
                                                                  4141700200110 
 634.15         0.06      1.49E-2    0.09E-2            1182.7    4141700200111 
                                                                  4141700200112 
 643.84         0.22      0.29E-2    0.05E-2            1826.6    4141700200113 
                                                                  4141700200114 
 647.53         0.03      3.03E-2    0.16E-2            1535.7    4141700200115 
                                                                  4141700200116 
 652.1          0.3       0.19E-2    0.04E-2                      4141700200117 
                                                                  4141700200118 
 654.1          0.4       0.18E-2    0.05E-2                      4141700200119 
                                                                  4141700200120 
 671.55         0.10      0.83E-2    0.06E-2            1634.5    4141700200121 
                                                                  4141700200122 
 678.05         0.13      0.42E-2    0.04E-2            1739.1    4141700200123 
                                                                  4141700200124 
 681.0          0.5       0.18E-2    0.05E-2                      4141700200125 
                                                                  4141700200126 
 684.8          0.2       0.16E-2    0.03E-2            1574.3    4141700200127 
                                                                  4141700200128 
 694.19         0.16      0.57E-2    0.06E-2                      4141700200129 
                                                                  4141700200130 
 697.29         0.02      5.3 E-2    0.3 E-2             962.9    4141700200131 
                                                                  4141700200132 
 711.69         0.13      0.60E-2    0.06E-2            2008.7    4141700200133 
                                                                  4141700200134 
 714.5          0.3       0.40E-2    0.05E-2                      4141700200135 
                                                                  4141700200136 
 720.8          0.4       0.09E-2    0.03E-2                      4141700200137 
                                                                  4141700200138 
 728.40         0.13      0.82E-2    0.06E-2            1691.4    4141700200139 
                                                                  4141700200140 
 747.24         0.13      0.51E-2    0.05E-2            1895.5    4141700200141 
 2071.7                                                           4141700200142 
 748.96         0.13      0.58E-2    0.05E-2                      4141700200143 
                                                                  4141700200144 
 765.3          0.4       0.10E-2    0.04E-2            1826.7    4141700200145 
                                                                  4141700200146 
 770.96         0.22      0.22E-2    0.04E-2            2128.8    4141700200147 
                                                                  4141700200148 
 775.93         0.06      1.12E-2    0.07E-2            1324.5    4141700200149 
                                                                  4141700200150 
 779.57         0.19      0.30E-2    0.05E-2            1840.4    4141700200151 
                                                                  4141700200152 
 791.3          0.4       0.29E-2    0.04E-2                      4141700200153 
                                                                  4141700200154 
 795.315        0.010     9.6 E-2    0.5 E-2            1061.0    4141700200155 
                                                                  4141700200156 
 801.3          0.6       0.12E-2    0.04E-2                      4141700200157 
                                                                  4141700200158 
 803.33         0.10                            1.0 E-2 1766.4    4141700200159 
                                                                  4141700200160 
 807.502        0.010     2.71E-1    1.4 E-2             888.2    4141700200161 
                                                                  4141700200162 
 812.8          0.3       0.17E-2    0.03E-2                      4141700200163 
                                                                  4141700200164 
 815.8          0.5       0.12E-2    0.03E-2                      4141700200165 
                                                                  4141700200166 
 819.76         0.13      0.40E-2    0.10E-2            1782.7    4141700200167 
                                                                  4141700200168 
 834.2          0.4       0.15E-2    0.04E-2            1895.5    4141700200169 
                                                                  4141700200170 
 842.27         0.07      1.41E-2    0.09E-2            1390.6    4141700200171 
                                                                  4141700200172 
 849.50         0.25      0.41E-2    0.05E-2            1739.1    4141700200173 
 1910.2                                                           4141700200174 
 853.8          0.4       0.09E-2    0.03E-2                      4141700200175 
                                                                  4141700200176 
 857.54         0.06      0.96E-2    0.06E-2            1745.8    4141700200177 
                                                                  4141700200178 
 863.77         0.13      0.54E-2    0.05E-2            1836.6    4141700200179 
                                                                  4141700200180 
 867.93         0.13                            0.70E-2           4141700200181 
                                                                  4141700200182 
 872.7          0.4       0.16E-2    0.03E-2                      4141700200183 
                                                                  4141700200184 
 878.54         0.10      0.84E-2    0.06E-2            1766.4    4141700200185 
 1840.6                                                           4141700200186 
 882.272        0.010     2.61E-1    1.3 E-2             962.9    4141700200187 
                                                                  4141700200188 
 888.150        0.010     2.44E-1    1.2 E-2             888.2    4141700200189 
                                                                  4141700200190 
 894.39         0.22      0.35E-2    0.05E-2            1782.8    4141700200191 
                                                                  4141700200192 
 900.80         0.19      0.44E-2    0.05E-2            1863.8    4141700200193 
                                                                  4141700200194 
 911.86         0.22      0.31E-2    0.04E-2            1973.0    4141700200195 
                                                                  4141700200196 
 917.089        0.015     5.41E-2    0.28E-2            1182.7    4141700200197 
                                                                  4141700200198 
 923.8          0.3       0.13E-2    0.03E-2            1886.8    4141700200199 
                                                                  4141700200200 
 932.5          0.3       0.22E-2    0.04E-2            1895.0    4141700200201 
                                                                  4141700200202 
 937.12         0.08      0.80E-2    0.06E-2            1485.6    4141700200203 
                                                                  4141700200204 
