ENTRY            10262   20011204                             13371026200000001 
SUBENT        10262001   20011204                             13371026200100001 
BIB                 14         28                                 1026200100002 
INSTITUTE  (1USAORL)                                              1026200100003 
REFERENCE  (J,PL/B,38,501,197204)                                 1026200100004 
AUTHOR     (H.Rosler,F.Plasil,H.W.Schmitt)                        1026200100005 
TITLE      High-resolution cross section measurement for          1026200100006 
            236U(n,f).                                            1026200100007 
FACILITY   (LINAC) Oak Ridge Electron Linear Accelerator          1026200100008 
INC-SOURCE (PHOTO)                                                1026200100009 
SAMPLE     0.5 mg/cm2 236U electroplated on both sides of         1026200100010 
            aluminum plates.                                      1026200100011 
METHOD     (TOF) Time-of-flight over 33-m flight path.            1026200100012 
DETECTOR   (FISCH)                                                1026200100013 
           (SCIN) plastic scintillator and ionization chamber used1026200100014 
                  to monitor neutron flux.                        1026200100015 
MONITOR    (92-U-235(N,F),,SIG) For flux monitor calibration.     1026200100016 
            Cross section normalized at 2 MeV.                    1026200100017 
CORRECTION Data corrected for dead-time, background effects, and  1026200100018 
            effects of aluminum contained in chamber or flux      1026200100019 
            monitors.                                             1026200100020 
ERR-ANALYS No information on uncertainties.                       1026200100021 
STATUS     No reply to author proff.                              1026200100022 
           Tabulated data received from H. Rosler, August 1975.   1026200100023 
HISTORY    (19750812C)                                            1026200100024 
           (19830613A) Converted to REACTION formalism            1026200100025 
           (20011204A) Converted to new date formats, lower case. 1026200100026 
           (20051018C) DR First value at 0.4916 MeV deleted       1026200100027 
                       because of its possible wrong value (of    1026200100028 
                       0.08421) compared to cross sections at     1026200100029 
                       0.4921 MeV and higher energies             1026200100030 
ENDBIB              28          0                                 1026200100031 
NOCOMMON             0          0                                 1026200100032 
ENDSUBENT           31          0                                 1026200199999 
SUBENT        10262002   20011204                             13371026200200001 
BIB                  1          1                                 1026200200002 
REACTION   (92-U-236(N,F),,SIG)                                   1026200200003 
ENDBIB               1          0                                 1026200200004 
COMMON               2          3                                 1026200200005 
EN-RSL     EN-NRM                                                 1026200200006 
KEV        MEV                                                    1026200200007 
 7.         2.                                                    1026200200008 
ENDCOMMON            3          0                                 1026200200009 
DATA                 2       1483                                 1026200200010 
EN         DATA                                                   1026200200011 
MEV        B                                                      1026200200012 
     0.4921    0.02074                                            1026200200013 
     0.4926    0.02023                                            1026200200014 
     0.4931    0.01880                                            1026200200015 
     0.4937    0.01386                                            1026200200016 
     0.4942    0.01531                                            1026200200017 
     0.4947    0.01882                                            1026200200018 
     0.4952    0.01786                                            1026200200019 
     0.4957    0.01715                                            1026200200020 
     0.4962    0.01768                                            1026200200021 
     0.4968    0.01762                                            1026200200022 
     0.4973    0.01887                                            1026200200023 
     0.4978    0.01952                                            1026200200024 
     0.4983    0.01536                                            1026200200025 
     0.4988    0.01322                                            1026200200026 
     0.4994    0.01436                                            1026200200027 
     0.4999    0.01983                                            1026200200028 
     0.5004    0.01784                                            1026200200029 
     0.5009    0.01563                                            1026200200030 
     0.5015    0.01523                                            1026200200031 
     0.5020    0.01667                                            1026200200032 
     0.5025    0.01986                                            1026200200033 
     0.5031    0.02186                                            1026200200034 
     0.5036    0.02240                                            1026200200035 
     0.5041    0.02117                                            1026200200036 
     0.5047    0.02067                                            1026200200037 
     0.5052    0.01685                                            1026200200038 
     0.5057    0.01675                                            1026200200039 
     0.5063    0.01414                                            1026200200040 
     0.5068    0.01438                                            1026200200041 
     0.5073    0.01474                                            1026200200042 
     0.5079    0.01447                                            1026200200043 
     0.5084    0.01290                                            1026200200044 
     0.5089    0.01636                                            1026200200045 
     0.5095    0.01605                                            1026200200046 
     0.5100    0.01690                                            1026200200047 
     0.5106    0.01876                                            1026200200048 
     0.5111    0.01818                                            1026200200049 
     0.5116    0.01682                                            1026200200050 
     0.5122    0.01770                                            1026200200051 
     0.5127    0.01413                                            1026200200052 
     0.5133    0.01267                                            1026200200053 
     0.5138    0.01006                                            1026200200054 
     0.5144    0.01172                                            1026200200055 
     0.5149    0.01688                                            1026200200056 
     0.5155    0.01579                                            1026200200057 
     0.5160    0.01402                                            1026200200058 
     0.5166    0.01627                                            1026200200059 
     0.5171    0.01633                                            1026200200060 
     0.5177    0.01619                                            1026200200061 
     0.5182    0.01796                                            1026200200062 
     0.5188    0.01721                                            1026200200063 
     0.5193    0.01559                                            1026200200064 
     0.5199    0.01488                                            1026200200065 
     0.5204    0.01374                                            1026200200066 
     0.5210    0.02074                                            1026200200067 
     0.5216    0.02891                                            1026200200068 
     0.5221    0.02683                                            1026200200069 
     0.5227    0.01871                                            1026200200070 
     0.5232    0.01893                                            1026200200071 
     0.5238    0.02113                                            1026200200072 
     0.5244    0.02013                                            1026200200073 
     0.5249    0.01919                                            1026200200074 
     0.5255    0.01866                                            1026200200075 
     0.5261    0.02117                                            1026200200076 
     0.5266    0.01814                                            1026200200077 
     0.5272    0.01751                                            1026200200078 
     0.5278    0.01963                                            1026200200079 
     0.5283    0.01720                                            1026200200080 
     0.5289    0.02269                                            1026200200081 
     0.5295    0.02021                                            1026200200082 
     0.5301    0.01723                                            1026200200083 
     0.5306    0.02103                                            1026200200084 
     0.5312    0.01669                                            1026200200085 
     0.5318    0.01769                                            1026200200086 
     0.5324    0.01593                                            1026200200087 
     0.5329    0.01346                                            1026200200088 
     0.5335    0.01542                                            1026200200089 
     0.5341    0.01298                                            1026200200090 
     0.5347    0.01254                                            1026200200091 
     0.5352    0.01316                                            1026200200092 
     0.5358    0.01303                                            1026200200093 
     0.5364    0.01461                                            1026200200094 
     0.5370    0.01943                                            1026200200095 
     0.5376    0.01714                                            1026200200096 
     0.5382    0.01506                                            1026200200097 
     0.5388    0.01696                                            1026200200098 
     0.5393    0.01721                                            1026200200099 
     0.5399    0.01857                                            1026200200100 
     0.5405    0.01758                                            1026200200101 
     0.5411    0.01614                                            1026200200102 
     0.5417    0.01524                                            1026200200103 
     0.5423    0.01684                                            1026200200104 
     0.5429    0.01773                                            1026200200105 
     0.5435    0.01674                                            1026200200106 
     0.5441    0.01448                                            1026200200107 
     0.5447    0.01938                                            1026200200108 
     0.5453    0.01978                                            1026200200109 
     0.5459    0.01882                                            1026200200110 
     0.5465    0.02206                                            1026200200111 
     0.5471    0.01903                                            1026200200112 
     0.5477    0.01486                                            1026200200113 
     0.5483    0.01413                                            1026200200114 
     0.5489    0.01496                                            1026200200115 
     0.5495    0.01876                                            1026200200116 
     0.5501    0.02066                                            1026200200117 
     0.5507    0.02096                                            1026200200118 
     0.5513    0.02105                                            1026200200119 
     0.5519    0.01779                                            1026200200120 
     0.5525    0.01875                                            1026200200121 
     0.5531    0.02158                                            1026200200122 
     0.5537    0.01998                                            1026200200123 
     0.5543    0.01802                                            1026200200124 
     0.5550    0.01718                                            1026200200125 
     0.5556    0.01773                                            1026200200126 
     0.5562    0.01867                                            1026200200127 
     0.5568    0.01822                                            1026200200128 
     0.5574    0.01826                                            1026200200129 
     0.5580    0.02178                                            1026200200130 
     0.5587    0.01988                                            1026200200131 
     0.5593    0.02140                                            1026200200132 
     0.5599    0.02027                                            1026200200133 
     0.5605    0.02051                                            1026200200134 
     0.5611    0.01818                                            1026200200135 
     0.5618    0.01427                                            1026200200136 
     0.5624    0.01556                                            1026200200137 
     0.5630    0.02350                                            1026200200138 
     0.5637    0.02032                                            1026200200139 
     0.5643    0.02075                                            1026200200140 
     0.5649    0.02366                                            1026200200141 
     0.5655    0.02410                                            1026200200142 
     0.5662    0.02339                                            1026200200143 
     0.5668    0.02391                                            1026200200144 
     0.5674    0.01916                                            1026200200145 
     0.5681    0.01568                                            1026200200146 
     0.5687    0.01678                                            1026200200147 
     0.5693    0.02002                                            1026200200148 
     0.5700    0.02020                                            1026200200149 
     0.5706    0.01659                                            1026200200150 
     0.5713    0.01729                                            1026200200151 
     0.5719    0.01837                                            1026200200152 
     0.5725    0.01820                                            1026200200153 
     0.5732    0.01761                                            1026200200154 
     0.5738    0.01879                                            1026200200155 
     0.5745    0.01777                                            1026200200156 
     0.5751    0.01918                                            1026200200157 
     0.5758    0.02091                                            1026200200158 
     0.5764    0.02095                                            1026200200159 
     0.5771    0.01833                                            1026200200160 
     0.5777    0.01691                                            1026200200161 
     0.5784    0.01697                                            1026200200162 
     0.5790    0.01834                                            1026200200163 
     0.5797    0.02195                                            1026200200164 
     0.5803    0.02462                                            1026200200165 
     0.5810    0.02114                                            1026200200166 
     0.5817    0.01920                                            1026200200167 
     0.5823    0.01911                                            1026200200168 
     0.5830    0.02003                                            1026200200169 
     0.5836    0.01927                                            1026200200170 
     0.5843    0.01800                                            1026200200171 
     0.5850    0.01786                                            1026200200172 
     0.5856    0.02354                                            1026200200173 
     0.5863    0.02635                                            1026200200174 
     0.5870    0.02315                                            1026200200175 
     0.5876    0.02065                                            1026200200176 
     0.5883    0.02118                                            1026200200177 
     0.5890    0.02024                                            1026200200178 
     0.5896    0.01954                                            1026200200179 
     0.5903    0.02065                                            1026200200180 
     0.5910    0.01961                                            1026200200181 
     0.5917    0.01885                                            1026200200182 
     0.5923    0.01869                                            1026200200183 
     0.5930    0.02219                                            1026200200184 
     0.5937    0.02427                                            1026200200185 
     0.5944    0.02476                                            1026200200186 
     0.5951    0.02855                                            1026200200187 
     0.5957    0.02793                                            1026200200188 
     0.5964    0.02618                                            1026200200189 
     0.5971    0.02210                                            1026200200190 
     0.5978    0.02125                                            1026200200191 
     0.5985    0.02457                                            1026200200192 
     0.5992    0.02318                                            1026200200193 
     0.5999    0.02097                                            1026200200194 
     0.6005    0.02101                                            1026200200195 
     0.6012    0.02575                                            1026200200196 
     0.6019    0.03233                                            1026200200197 
     0.6026    0.03029                                            1026200200198 
     0.6033    0.02339                                            1026200200199 
     0.6040    0.02030                                            1026200200200 
     0.6047    0.02325                                            1026200200201 
     0.6054    0.02274                                            1026200200202 
     0.6061    0.02608                                            1026200200203 
     0.6068    0.02511                                            1026200200204 
     0.6075    0.02799                                            1026200200205 
     0.6082    0.02546                                            1026200200206 
     0.6089    0.02550                                            1026200200207 
     0.6096    0.02896                                            1026200200208 
     0.6103    0.02407                                            1026200200209 
     0.6110    0.02427                                            1026200200210 
     0.6118    0.02529                                            1026200200211 
     0.6125    0.02309                                            1026200200212 
