ENTRY            10432   20030408                             00001043200000001 
SUBENT        10432001   20030408                             00001043200100001 
BIB                 12         23                                 1043200100002 
INSTITUTE  (1USAORL)                                              1043200100003 
REFERENCE  (J,PR/C,11,1270,197504)                                1043200100004 
AUTHOR     (R.L.Macklin,J.Halperin,R.R.Winters)                   1043200100005 
TITLE      Gold neutron capture cross section from 3 to 550 keV.  1043200100006 
FACILITY   (LINAC,1USAORL) Oak Ridge Electron Linear Accelerator. 1043200100007 
INC-SPECT  Energy resolution better than 0.2% below 90 keV.       1043200100008 
DETECTOR   (GLASD) 6Li glass detector used as flux monitor.       1043200100009 
MONITOR    (3-LI-6(N,T)2-HE-4,,SIG)                               1043200100010 
            Energy calibrated using 4.9-eV resonance in gold.     1043200100011 
CORRECTION Corrections have been made for average scattering of   1043200100012 
            neutrons, attenuation of gamma-rays, and, above 240   1043200100013 
            keV, inelastic gamma-ray yield.                       1043200100014 
REL-REF    (C,,MACKLIN+,J,NSE,78,110,198105) Correction.          1043200100015 
STATUS     Data taken from private communication, Macklin, 1975/2.1043200100016 
           (APRVD) R.J.Macklin, 1986/9/22.                        1043200100017 
HISTORY    (19741014C)                                            1043200100018 
           (19750226A) Resonance parameters added.                1043200100019 
           (19801205A) STATUS comment added, converted to         1043200100020 
                       REACTION formalism.                        1043200100021 
           (19811218A) BIB correction.                            1043200100022 
           (19860813A) BIB update.                                1043200100023 
           (20030408A) Converted to new date formats, lower case. 1043200100024 
                       BIB update.                                1043200100025 
ENDBIB              23          0                                 1043200100026 
NOCOMMON             0          0                                 1043200100027 
ENDSUBENT           26          0                                 1043200199999 
SUBENT        10432002   20030408                             00001043200200001 
BIB                  5          8                                 1043200200002 
REACTION   (79-AU-197(N,G)79-AU-198,,SIG,,AV)                     1043200200003 
CORRECTION Corrected by a factor of 1.0001 due to error in        1043200200004 
            processing code, see Macklin et al.                   1043200200005 
ERR-ANALYS No information on uncertainties.                       1043200200006 
STATUS     Corrected by NNDC as per Macklin et al.                1043200200007 
HISTORY    (19830607A) Data heading corrected.                    1043200200008 
           (19860813A) Data corrected.                            1043200200009 
           (20030408A) Width of energy bin added (EN-RSL).        1043200200010 
ENDBIB               8          0                                 1043200200011 
COMMON               1          3                                 1043200200012 
EN-RSL                                                            1043200200013 
KEV                                                               1043200200014 
  0.25                                                            1043200200015 
ENDCOMMON            3          0                                 1043200200016 
DATA                 2        400                                 1043200200017 
EN-MEAN    DATA                                                   1043200200018 
KEV        B                                                      1043200200019 
  2.75      2.5751                                                1043200200020 
  3.00      2.0262                                                1043200200021 
  3.25      2.6361                                                1043200200022 
  3.50      2.8480                                                1043200200023 
  3.75      1.9761                                                1043200200024 
  4.00      3.0124                                                1043200200025 
  4.25      2.5820                                                1043200200026 
  4.50      1.7363                                                1043200200027 
  4.75      1.8644                                                1043200200028 
  5.00      1.6024                                                1043200200029 
  5.25      1.5776                                                1043200200030 
  5.50      2.1794                                                1043200200031 
  5.75      1.8531                                                1043200200032 
  6.00      2.0711                                                1043200200033 
  6.25      1.7760                                                1043200200034 
  6.50      1.5784                                                1043200200035 
  6.75      1.6024                                                1043200200036 
  7.00      1.7816                                                1043200200037 
  7.25      1.7208                                                1043200200038 
  7.50      1.6091                                                1043200200039 
  7.75      1.2227                                                1043200200040 
  8.00      1.4965                                                1043200200041 
  8.25      1.3106                                                1043200200042 
  8.50      1.2468                                                1043200200043 
  8.75      1.1710                                                1043200200044 
  9.00      1.2907                                                1043200200045 
  9.25      1.2864                                                1043200200046 
  9.50      0.9815                                                1043200200047 
  9.75      1.0723                                                1043200200048 
 10.00      1.2279                                                1043200200049 
 10.25      1.1269                                                1043200200050 
 10.50      0.9206                                                1043200200051 
 10.75      0.7683                                                1043200200052 
 11.00      1.3169                                                1043200200053 
 11.25      1.4261                                                1043200200054 
 11.50      1.0761                                                1043200200055 
 11.75      1.0958                                                1043200200056 
 12.00      1.1866                                                1043200200057 
 12.25      1.1055                                                1043200200058 
 12.50      0.6909                                                1043200200059 
 12.75      1.0984                                                1043200200060 
 13.00      1.0813                                                1043200200061 
 13.25      0.8470                                                1043200200062 
 13.50      0.9534                                                1043200200063 
 13.75      0.7353                                                1043200200064 
 14.00      1.0030                                                1043200200065 
 14.25      0.7714                                                1043200200066 
 14.50      0.8980                                                1043200200067 
 14.75      0.8938                                                1043200200068 
 15.00      0.7879                                                1043200200069 
 15.25      0.8972                                                1043200200070 
 15.50      0.8872                                                1043200200071 
 15.75      0.8465                                                1043200200072 
 16.00      0.6336                                                1043200200073 
 16.25      0.8841                                                1043200200074 
 16.50      0.8749                                                1043200200075 
 16.75      0.7557                                                1043200200076 
 17.00      0.7452                                                1043200200077 
 17.25      0.9721                                                1043200200078 
 17.50      0.7355                                                1043200200079 
 17.75      0.7815                                                1043200200080 
 18.00      0.7874                                                1043200200081 
 18.25      0.8349                                                1043200200082 
 18.50      0.8060                                                1043200200083 
 18.75      0.7661                                                1043200200084 
 19.00      0.7953                                                1043200200085 
 19.25      0.6208                                                1043200200086 
 19.50      0.5625                                                1043200200087 
 19.75      0.5790                                                1043200200088 
 20.00      0.7725                                                1043200200089 
 20.25      0.6520                                                1043200200090 
 20.50      0.7119                                                1043200200091 
 20.75      0.6758                                                1043200200092 
 21.00      0.6402                                                1043200200093 
 21.25      0.7048                                                1043200200094 
 21.50      0.6512                                                1043200200095 
 21.75      0.5957                                                1043200200096 
 22.00      0.6980                                                1043200200097 
 22.25      0.4537                                                1043200200098 
 22.50      0.6719                                                1043200200099 
 22.75      0.6017                                                1043200200100 
 23.00      0.5631                                                1043200200101 
 23.25      0.5822                                                1043200200102 
 23.50      0.6374                                                1043200200103 
 23.75      0.6265                                                1043200200104 
 24.00      0.5823                                                1043200200105 
 24.25      0.7015                                                1043200200106 
 24.50      0.6268                                                1043200200107 
 24.75      0.5156                                                1043200200108 
 25.00      0.6034                                                1043200200109 
 25.25      0.7600                                                1043200200110 
 25.50      0.6193                                                1043200200111 
 25.75      0.5528                                                1043200200112 
 26.00      0.5556                                                1043200200113 
 26.25      0.5117                                                1043200200114 
 26.50      0.6133                                                1043200200115 
 26.75      0.6012                                                1043200200116 
 27.00      0.6540                                                1043200200117 
 27.25      0.6381                                                1043200200118 
 27.50      0.6035                                                1043200200119 
 27.75      0.6016                                                1043200200120 
 28.00      0.6296                                                1043200200121 
 28.25      0.5912                                                1043200200122 
 28.50      0.7330                                                1043200200123 
 28.75      0.6160                                                1043200200124 
 29.00      0.6107                                                1043200200125 
 29.25      0.5202                                                1043200200126 
 29.50      0.6757                                                1043200200127 
 29.75      0.4833                                                1043200200128 
 30.00      0.6524                                                1043200200129 
 30.25      0.6624                                                1043200200130 
 30.50      0.5333                                                1043200200131 
 30.75      0.5734                                                1043200200132 
 31.00      0.5395                                                1043200200133 
 31.25      0.5036                                                1043200200134 
 31.50      0.5234                                                1043200200135 
 31.75      0.5738                                                1043200200136 
 32.00      0.4921                                                1043200200137 
 32.25      0.5534                                                1043200200138 
 32.50      0.5357                                                1043200200139 
 32.75      0.5384                                                1043200200140 
 33.00      0.5537                                                1043200200141 
 33.25      0.5377                                                1043200200142 
 33.50      0.5659                                                1043200200143 
 33.75      0.5193                                                1043200200144 
 34.00      0.4631                                                1043200200145 
 34.25      0.4582                                                1043200200146 
 34.50      0.4879                                                1043200200147 
 34.75      0.5170                                                1043200200148 
 35.00      0.5033                                                1043200200149 
 35.25      0.4975                                                1043200200150 
 35.50      0.5408                                                1043200200151 
 35.75      0.5111                                                1043200200152 
 36.00      0.4912                                                1043200200153 
 36.25      0.4726                                                1043200200154 
 36.50      0.5014                                                1043200200155 
 36.75      0.5283                                                1043200200156 
 37.00      0.4452                                                1043200200157 
 37.25      0.5625                                                1043200200158 
 37.50      0.4700                                                1043200200159 
 37.75      0.5628                                                1043200200160 
 38.00      0.5669                                                1043200200161 
 38.25      0.5639                                                1043200200162 
 38.50      0.5656                                                1043200200163 
 38.75      0.4979                                                1043200200164 
 39.00      0.5044                                                1043200200165 
 39.25      0.5051                                                1043200200166 
 39.50      0.5907                                                1043200200167 
 39.75      0.4869                                                1043200200168 
 40.00      0.5425                                                1043200200169 
 40.25      0.4833                                                1043200200170 
 40.50      0.5024                                                1043200200171 
 40.75      0.5111                                                1043200200172 
 41.00      0.4937                                                1043200200173 
 41.25      0.4741                                                1043200200174 
 41.50      0.5525                                                1043200200175 
 41.75      0.4658                                                1043200200176 
 42.00      0.4262                                                1043200200177 
 42.25      0.4668                                                1043200200178 
 42.50      0.4789                                                1043200200179 
 42.75      0.3873                                                1043200200180 
 43.00      0.4633                                                1043200200181 
 43.25      0.5314                                                1043200200182 
 43.50      0.4552                                                1043200200183 
 43.75      0.4430                                                1043200200184 
 44.00      0.3758                                                1043200200185 
 44.25      0.3977                                                1043200200186 
 44.50      0.4509                                                1043200200187 
 44.75      0.5116                                                1043200200188 
 45.00      0.4527                                                1043200200189 
 45.25      0.3893                                                1043200200190 
 45.50      0.4359                                                1043200200191 
 45.75      0.4491                                                1043200200192 
 46.00      0.3918                                                1043200200193 
 46.25      0.4767                                                1043200200194 
 46.50      0.4055                                                1043200200195 
 46.75      0.5017                                                1043200200196 
 47.00      0.4649                                                1043200200197 
 47.25      0.4543                                                1043200200198 
 47.50      0.4607                                                1043200200199 
 47.75      0.4148                                                1043200200200 
 48.00      0.4853                                                1043200200201 
 48.25      0.4768                                                1043200200202 
 48.50      0.3952                                                1043200200203 
 48.75      0.3652                                                1043200200204 
 49.00      0.3811                                                1043200200205 
 49.25      0.4145                                                1043200200206 
 49.50      0.4559                                                1043200200207 
 49.75      0.4226                                                1043200200208 
 50.00      0.4238                                                1043200200209 
 50.25      0.4002                                                1043200200210 
 50.50      0.5138                                                1043200200211 
 50.75      0.4394                                                1043200200212 
 51.00      0.4883                                                1043200200213 
 51.25      0.4421                                                1043200200214 
 51.50      0.4297                                                1043200200215 
 51.75      0.4168                                                1043200200216 
 52.00      0.3629                                                1043200200217 
