ENTRY            10508   20040427                             13501050800000001 
SUBENT        10508001   20040427                             13501050800100001 
BIB                 13         18                                 1050800100002 
INSTITUTE  (1USACOL)                                              1050800100003 
REFERENCE  (J,PR/C,8,1833,197311)                                 1050800100004 
AUTHOR     (U.N.Singh,H.I.Liou,G.Hacken,M.Slagowitz,F.Rahn,       1050800100005 
           J.Rainwater,W.Makofske,J.B.Garg)                       1050800100006 
TITLE      Neutron Resonance Spectroscopy. XIV. Potassium         1050800100007 
FACILITY   (SYNCH,1USACOL) Nevis Synchrocyclotron                 1050800100008 
INC-SOURCE (EVAP) Evaporation neutrons from lead.                 1050800100009 
SAMPLE     Metallic potassium encased in polyethelene             1050800100010 
METHOD     (TOF) Time-of-flight                                   1050800100011 
DETECTOR   (SCIN) Plastic scintillators for self-indication       1050800100012 
                  measurements                                    1050800100013 
           (NAICR) Sodium-iodide crystals for viewing a boron slab1050800100014 
CORRECTION Data are corrected for background                      1050800100015 
ERR-ANALYS (DATA-ERR) No information on source of uncertainties.  1050800100016 
STATUS     (APRVD) Approved by author 1975/7/11                   1050800100017 
HISTORY    (19750509C)                                            1050800100018 
           (19830823A) Converted to REACTION formalism            1050800100019 
           (20040427A) Updated to new date formats, lower case.   1050800100020 
ENDBIB              18          0                                 1050800100021 
NOCOMMON             0          0                                 1050800100022 
ENDSUBENT           21          0                                 1050800199999 
SUBENT        10508002   20080925                             13501050800200001 
BIB                  2          2                                 1050800200002 
REACTION   (19-K-39(N,EL),,STF)                                   1050800200003 
HISTORY    (20080915A) Energy heading corrected.                  1050800200004 
ENDBIB               2          0                                 1050800200005 
NOCOMMON             0          0                                 1050800200006 
DATA                 5          2                                 1050800200007 
EN-RES-MAX DATA       +DATA-ERR  -DATA-ERR  MOMENTUM L            1050800200008 
KEV        NO-DIM     NO-DIM     NO-DIM     NO-DIM                1050800200009 
102.          1.8 E-04   0.7 E-04   0.5 E-04 1.                   1050800200010 
110.          0.66E-04   0.63E-04   0.30E-04 0.                   1050800200011 
ENDDATA              4          0                                 1050800200012 
ENDSUBENT           11          0                                 1050800299999 
SUBENT        10508003   20080925                             13501050800300001 
BIB                  2          2                                 1050800300002 
REACTION   (19-K-41(N,EL),,STF)                                   1050800300003 
HISTORY    (20080915A) Energy heading corrected.                  1050800300004 
ENDBIB               2          0                                 1050800300005 
NOCOMMON             0          0                                 1050800300006 
DATA                 5          2                                 1050800300007 
EN-RES-MAX DATA       +DATA-ERR  -DATA-ERR  MOMENTUM L            1050800300008 
KEV        NO-DIM     NO-DIM     NO-DIM     NO-DIM                1050800300009 
 40.          0.78E-04   1.08E-04   0.41E-04 0.                   1050800300010 
102.          2.4 E-04   1.3 E-04   0.8 E-04 1.                   1050800300011 
ENDDATA              4          0                                 1050800300012 
ENDSUBENT           11          0                                 1050800399999 
SUBENT        10508004   20040427                             00001050800400001 
BIB                  3          6                                 1050800400002 
REACTION  1(19-K-39(N,0),,EN)                                     1050800400003 
          2(19-K-39(N,EL),,WID,,G)                                1050800400004 
          3(19-K-39(N,0),,L)                                      1050800400005 
          4(19-K-39(N,0),,J)                                      1050800400006 
ANALYSIS   (AREA) Area analysis                                   1050800400007 
CORRECTION Data given have also been corrected for Doppler Effect.1050800400008 
ENDBIB               6          0                                 1050800400009 
NOCOMMON             0          0                                 1050800400010 
DATA                 6         40                                 1050800400011 
DATA      1DATA-ERR  1DATA      2DATA-ERR  2DATA      3DATA      41050800400012 
KEV        KEV        EV         EV         NO-DIM     NO-DIM     1050800400013 
  1.1114   0.0004       0.0068     0.0005   1.                    1050800400014 
  3.2774   0.0011       0.047      0.007    1.                    1050800400015 
  9.3780   0.0095      25.        3.        0.                    1050800400016 
 12.606    0.008        0.61       0.12     1.         1.         1050800400017 
 14.284    0.010        0.38       0.08     1.                    1050800400018 
 15.934    0.011        0.79       0.14     1.         2.         1050800400019 
 15.934    0.011        0.79       0.14     1.         3.         1050800400020 
 25.519    0.023       49.         8.       0.         1.         1050800400021 
 32.19     0.03         1.7        0.4      1.         1.         1050800400022 
 33.30     0.04         9.4        2.0      1.         1.         1050800400023 
 37.49     0.04         5.4        1.1      1.         0.         1050800400024 
 42.61     0.05       300.        30.       0.         2.         1050800400025 
 45.95     0.06        24.         7.       1.         1.         1050800400026 
 52.09     0.07         7.4        2.0      1.                    1050800400027 
 54.55     0.07         9.5        2.5      1.         0.         1050800400028 
 57.83     0.08       430.        40.       0.         2.         1050800400029 
 59.86     0.10        29.         7.       1.         1.         1050800400030 
 59.86     0.10        29.         7.       1.         2.         1050800400031 
 68.76     0.10       490.        60.       1.         1.         1050800400032 
 81.01     0.13        14.         5.       1.         1.         1050800400033 
 87.50     0.14       165.        20.       1.         1.         1050800400034 
 92.91     0.16        17.         4.       1.                    1050800400035 
 96.63     0.17       210.        20.       0.         1.         1050800400036 
 99.10     0.17        68.        15.       1.                    1050800400037 
102.0      0.2         21.         6.       1.                    1050800400038 
108.7      0.2        700.       150.       0.         1.         1050800400039 
118.5      0.3         36.         6.       1.                    1050800400040 
122.5      0.3         16.         4.       1.                    1050800400041 
132.3      0.3        140.        20.       1.         0.         1050800400042 
132.3      0.3        140.        20.       1.         1.         1050800400043 
134.8      0.3         77.        15.       1.         1.         1050800400044 
134.8      0.3         77.        15.       1.         2.         1050800400045 
136.3      0.3         42.        12.       1.                    1050800400046 
143.9      0.3        100.        20.       1.         2.         1050800400047 
153.9      0.4        750.       100.       1.         3.         1050800400048 
162.3      0.4        440.        50.       1.         1.         1050800400049 
162.3      0.4        440.        50.       1.         2.         1050800400050 
177.6      0.4        390.        50.       1.         1.         1050800400051 
188.3      0.5         98.        20.       1.                    1050800400052 
193.1      0.5        350.        70.       0.         1.         1050800400053 
ENDDATA             42          0                                 1050800400054 
ENDSUBENT           53          0                                 1050800499999 
SUBENT        10508005   20040427                             00001050800500001 
BIB                  3          6                                 1050800500002 
REACTION  1(19-K-41(N,0),,EN)                                     1050800500003 
          2(19-K-41(N,EL),,WID,,G)                                1050800500004 
          3(19-K-41(N,0),,L)                                      1050800500005 
          4(19-K-41(N,0),,J)                                      1050800500006 
ANALYSIS   (AREA) Area analysis                                   1050800500007 
CORRECTION Data given have also been corrected for Doppler Effect.1050800500008 
ENDBIB               6          0                                 1050800500009 
NOCOMMON             0          0                                 1050800500010 
DATA                 6         28                                 1050800500011 
DATA      1DATA-ERR  1DATA      2DATA-ERR  2DATA      3DATA      41050800500012 
KEV        KEV        EV         EV         NO-DIM     NO-DIM     1050800500013 
  2.0287   0.0005       0.11       0.02     0.         2.         1050800500014 
  3.2046   0.0010       0.0081     0.0010   1.                    1050800500015 
  4.012                                                           1050800500016 
  5.5363   0.0045       2.6        0.3      0.         1.         1050800500017 
 13.330    0.010        0.20       0.04     1.         1.         1050800500018 
 13.330    0.010        0.20       0.04     1.         2.         1050800500019 
 15.012    0.010        0.16       0.04     1.         1.         1050800500020 
 16.704    0.025        6.0        1.2      0.         2.         1050800500021 
 20.285    0.016        1.0        0.3      1.                    1050800500022 
 24.926    0.022        3.7        0.7      1.                    1050800500023 
 27.083    0.025        0.63       0.15     1.         3.         1050800500024 
 28.308                                                           1050800500025 
 38.56     0.04        28.         5.       0.         2.         1050800500026 
 42.35                                                            1050800500027 
 55.72     0.07         2.7        0.8      1.                    1050800500028 
 58.20                                                            1050800500029 
 63.22                                                            1050800500030 
 67.04                                                            1050800500031 
 70.45                                                            1050800500032 
 75.44     0.12        14.         4.       1.                    1050800500033 
 79.63     0.13        24.         4.       1.                    1050800500034 
 83.39     0.13        12.         4.       1.                    1050800500035 
 91.08     0.15         4.5        2.0      1.                    1050800500036 
 98.40                                                            1050800500037 
100.9      0.2         15.         5.       1.                    1050800500038 
110.3                                                             1050800500039 
115.9      0.3         29.         9.       1.                    1050800500040 
120.7      0.3         14.         3.       1.                    1050800500041 
ENDDATA             30          0                                 1050800500042 
ENDSUBENT           41          0                                 1050800599999 
SUBENT        10508006   20080925                             13501050800600001 
BIB                  5          8                                 1050800600002 
REACTION  1(19-K-0(N,0),,EN)                                      1050800600003 
          2(19-K-0(N,EL),,WID,,G)                                 1050800600004 
          3(19-K-0(N,0),,L)                                       1050800600005 
ANALYSIS   (AREA)                                                 1050800600006 
CORRECTION Data given have also been corrected for Doppler Effect.1050800600007 
FLAG       (1.) Value of resonance width not completely           1050800600008 
             determined; see reference text for explanation.      1050800600009 
HISTORY   2(20080915A) Data error units corrected.                1050800600010 
ENDBIB               8          0                                 1050800600011 
NOCOMMON             0          0                                 1050800600012 
DATA                 6         12                                 1050800600013 
DATA      1DATA-ERR  1DATA      2DATA-ERR  2DATA      3FLAG       1050800600014 
KEV        KEV        EV         EV         NO-DIM     NO-DIM     1050800600015 
 12.138    0.008        0.083      0.015    1.                    1050800600016 
 16.464    0.012        0.08       0.03     1.                    1050800600017 
 78.66     0.12                             1.         1.         1050800600018 
 90.33     0.15                             1.         1.         1050800600019 
104.2      0.2                              1.         1.         1050800600020 
126.9      0.3                              1.         1.         1050800600021 
138.3      0.3                              1.         1.         1050800600022 
146.0      0.3         82.        18.       1.                    1050800600023 
147.4      0.3         57.        14.       1.                    1050800600024 
149.0      0.3                              1.         1.         1050800600025 
184.1      0.5                              1.         1.         1050800600026 
198.8      0.5                              1.         1.         1050800600027 
ENDDATA             14          0                                 1050800600028 
ENDSUBENT           27          0                                 1050800699999 
SUBENT        10508007   20040427                             00001050800700001 
BIB                  1          1                                 1050800700002 
REACTION   (19-K-0(N,TOT),,SIG)                                   1050800700003 
ENDBIB               1          0                                 1050800700004 
NOCOMMON             0          0                                 1050800700005 
DATA                 2       1197                                 1050800700006 
EN         DATA                                                   1050800700007 
EV         B                                                      1050800700008 
   1004.838       2.70                                            1050800700009 
   1033.705       2.72                                            1050800700010 
   1063.834       2.71                                            1050800700011 
   1074.169       2.73                                            1050800700012 
   1084.657       2.75                                            1050800700013 
   1095.299       2.75                                            1050800700014 
   1098.882       2.75                                            1050800700015 
   1102.481       2.90                                            1050800700016 
   1106.099       3.38                                            1050800700017 
   1107.308       3.46                                            1050800700018 
   1108.520       4.24                                            1050800700019 
   1109.733       7.10                                            1050800700020 
   1110.138       7.74                                            1050800700021 
   1110.544      11.50                                            1050800700022 
   1110.950      13.01                                            1050800700023 
   1111.355      14.73                                            1050800700024 
   1111.761       9.82                                            1050800700025 
   1112.167       8.17                                            1050800700026 
   1112.574       7.71                                            1050800700027 
   1112.980       6.26                                            1050800700028 
   1114.609       3.71                                            1050800700029 
   1115.832       3.03                                            1050800700030 
   1117.059       2.83                                            1050800700031 
   1120.748       2.74                                            1050800700032 
   1124.456       2.86                                            1050800700033 
   1128.182       2.81                                            1050800700034 
   1131.927       2.88                                            1050800700035 
   1135.691       2.82                                            1050800700036 
   1139.472       2.88                                            1050800700037 
   1236.230       2.75                                            1050800700038 
   1318.824       2.79                                            1050800700039 
   1384.949       2.71                                            1050800700040 
   1456.175       2.72                                            1050800700041 
   1533.037       2.74                                            1050800700042 
   1616.153       2.69                                            1050800700043 
   1706.215       2.71                                            1050800700044 
   1804.018       2.72                                            1050800700045 
   1910.481       2.70                                            1050800700046 
   1999.939       2.96                                            1050800700047 
   2013.229       3.66                                            1050800700048 
   2017.689       3.82                                            1050800700049 
   2022.165       6.77                                            1050800700050 
   2023.160       8.38                                            1050800700051 
   2025.156      11.81                                            1050800700052 
   2026.655      25.05                                            1050800700053 
   2027.655      34.12                                            1050800700054 
   2028.153      38.18                                            1050800700055 
   2028.653      46.97                                            1050800700056 
   2029.655      27.15                                            1050800700057 
   2031.159      23.52                                            1050800700058 
   2032.662      14.39                                            1050800700059 
   2034.170      11.99                                            1050800700060 
   2035.677       6.88                                            1050800700061 
   2037.188       5.88                                            1050800700062 
   2044.762       4.46                                            1050800700063 
   2049.327       3.74                                            1050800700064 
   2053.908       3.66                                            1050800700065 
   2058.505       3.27                                            1050800700066 
   2067.741       3.00                                            1050800700067 
   2081.716       2.96                                            1050800700068 
   2095.831       2.90                                            1050800700069 
