ENTRY            10511   20040427                             00001051100000001 
SUBENT        10511001   20040427                             00001051100100001 
BIB                 11         14                                 1051100100002 
INSTITUTE  (1USADKE,1USATNL)                                      1051100100003 
REFERENCE  (J,AP,89,284,1975)                                     1051100100004 
AUTHOR     (J.G.Malan,W.F.E.Pineo,M.Divadeenam,B.H.Choi,          1051100100005 
           E.G.Bilpuch,H.W.Newson)                                1051100100006 
TITLE      s- and p-wave neutron spectroscopy. Xc. Intermediate   1051100100007 
            structure: 88Sr                                       1051100100008 
FACILITY   (VDG,1USATNL) Van-de-Graaff.                           1051100100009 
INC-SOURCE (P-LI7) Protons on LiF targets.                        1051100100010 
SAMPLE     Sample thickness 0.084 atoms/b.                        1051100100011 
CORRECTION Not corrected for background (estimated small).        1051100100012 
ERR-ANALYS No information on uncertainties.                       1051100100013 
STATUS     (APRVD) Approved by M.Divadeenam 1978/3/1              1051100100014 
HISTORY    (19780119C)                                            1051100100015 
           (20040427A) Updated to new date formats, lower case.   1051100100016 
ENDBIB              14          0                                 1051100100017 
NOCOMMON             0          0                                 1051100100018 
ENDSUBENT           17          0                                 1051100199999 
SUBENT        10511002   20040427                             00001051100200001 
BIB                  1          1                                 1051100200002 
REACTION   (38-SR-0(N,TOT),,SIG)                                  1051100200003 
ENDBIB               1          0                                 1051100200004 
NOCOMMON             0          0                                 1051100200005 
DATA                 2       1737                                 1051100200006 
EN         DATA                                                   1051100200007 
KEV        B                                                      1051100200008 
  75.0        8.458                                               1051100200009 
  75.9        8.997                                               1051100200010 
  76.8        9.283                                               1051100200011 
  77.8        8.297                                               1051100200012 
  78.7        8.700                                               1051100200013 
  79.6        8.787                                               1051100200014 
  80.5        8.278                                               1051100200015 
  81.4        9.116                                               1051100200016 
  82.3        8.307                                               1051100200017 
  83.2        8.055                                               1051100200018 
  84.1        8.411                                               1051100200019 
  85.0        7.685                                               1051100200020 
  85.9        8.191                                               1051100200021 
  86.7        8.083                                               1051100200022 
  87.6        8.280                                               1051100200023 
  88.5        8.413                                               1051100200024 
  89.3        7.657                                               1051100200025 
  90.2        7.342                                               1051100200026 
  91.0        8.373                                               1051100200027 
  91.9       10.158                                               1051100200028 
  92.7        8.507                                               1051100200029 
  93.5        6.690                                               1051100200030 
  94.4        8.750                                               1051100200031 
  95.2       12.390                                               1051100200032 
  96.0       13.995                                               1051100200033 
  96.8       14.291                                               1051100200034 
  97.7       13.716                                               1051100200035 
  98.5       15.717                                               1051100200036 
  99.3       14.029                                               1051100200037 
 100.1       12.426                                               1051100200038 
 100.9       10.977                                               1051100200039 
 101.7       11.237                                               1051100200040 
 102.5       10.418                                               1051100200041 
 103.3        9.534                                               1051100200042 
 104.1        9.218                                               1051100200043 
 104.8        9.391                                               1051100200044 
 105.6        8.770                                               1051100200045 
 105.6        8.694                                               1051100200046 
 105.9        9.553                                               1051100200047 
 106.3        9.135                                               1051100200048 
 106.4        8.879                                               1051100200049 
 106.6        8.623                                               1051100200050 
 106.9        8.531                                               1051100200051 
 107.2        8.428                                               1051100200052 
 107.2        8.351                                               1051100200053 
 107.5        7.735                                               1051100200054 
 107.8        7.659                                               1051100200055 
 108.0        7.390                                               1051100200056 
 108.1        8.101                                               1051100200057 
 108.4        7.485                                               1051100200058 
 108.7        9.500                                               1051100200059 
 108.7        8.554                                               1051100200060 
 109.0        9.622                                               1051100200061 
 109.4       10.008                                               1051100200062 
 109.5       10.425                                               1051100200063 
 109.7        9.933                                               1051100200064 
 110.0       10.872                                               1051100200065 
 110.3       10.436                                               1051100200066 
 110.3       10.526                                               1051100200067 
 110.6       10.992                                               1051100200068 
 110.9       10.455                                               1051100200069 
 111.0       10.271                                               1051100200070 
 111.2       10.772                                               1051100200071 
 111.5       10.789                                               1051100200072 
 111.8       10.888                                               1051100200073 
 111.8       10.685                                               1051100200074 
 112.6       11.969                                               1051100200075 
 112.6       12.707                                               1051100200076 
 113.3       12.885                                               1051100200077 
 114.1       11.418                                               1051100200078 
 114.8        9.654                                               1051100200079 
 115.6       10.375                                               1051100200080 
 116.3        9.253                                               1051100200081 
 117.1        9.999                                               1051100200082 
 117.8        9.380                                               1051100200083 
 118.6        9.723                                               1051100200084 
 119.3       10.288                                               1051100200085 
 120.1        9.528                                               1051100200086 
 120.8        9.911                                               1051100200087 
 121.5       10.817                                               1051100200088 
 122.3       11.767                                               1051100200089 
 123.0       12.706                                               1051100200090 
 123.7       15.366                                               1051100200091 
 124.5       20.701                                               1051100200092 
 125.2       23.435                                               1051100200093 
 125.9       22.302                                               1051100200094 
 126.6       19.907                                               1051100200095 
 127.4       15.987                                               1051100200096 
 128.1       12.477                                               1051100200097 
 128.8       12.269                                               1051100200098 
 129.5       11.000                                               1051100200099 
 130.2       10.644                                               1051100200100 
 131.0        9.837                                               1051100200101 
 131.7        9.171                                               1051100200102 
 132.4        9.471                                               1051100200103 
 133.1        9.103                                               1051100200104 
 133.8        9.123                                               1051100200105 
 134.5        9.376                                               1051100200106 
 135.2        8.959                                               1051100200107 
 135.9        8.796                                               1051100200108 
 136.6        8.730                                               1051100200109 
 137.3        8.446                                               1051100200110 
 138.0        8.167                                               1051100200111 
 138.7        8.043                                               1051100200112 
 139.4        8.412                                               1051100200113 
 140.1        8.218                                               1051100200114 
 140.8        7.943                                               1051100200115 
 141.5        7.840                                               1051100200116 
 142.2        7.725                                               1051100200117 
 142.9        6.666                                               1051100200118 
 143.6        6.767                                               1051100200119 
 144.3        8.279                                               1051100200120 
 145.0        9.679                                               1051100200121 
 145.7       10.415                                               1051100200122 
 146.4       10.070                                               1051100200123 
 147.0       10.208                                               1051100200124 
 147.7        9.666                                               1051100200125 
 148.4        9.509                                               1051100200126 
 149.1        9.270                                               1051100200127 
 149.8        9.372                                               1051100200128 
 150.5        9.647                                               1051100200129 
 151.1       10.074                                               1051100200130 
 151.8       10.953                                               1051100200131 
 151.8       11.379                                               1051100200132 
 152.5       13.948                                               1051100200133 
 153.2       17.156                                               1051100200134 
 153.8       16.210                                               1051100200135 
 154.5       13.917                                               1051100200136 
 155.2       12.453                                               1051100200137 
 155.9       14.505                                               1051100200138 
 156.5       14.986                                               1051100200139 
 157.2       11.819                                               1051100200140 
 157.9       11.216                                               1051100200141 
 158.5       10.121                                               1051100200142 
 158.9        8.909                                               1051100200143 
 159.2        9.514                                               1051100200144 
 159.6        8.303                                               1051100200145 
 159.9        8.895                                               1051100200146 
 160.2        8.633                                               1051100200147 
 160.5        8.671                                               1051100200148 
 160.9        8.781                                               1051100200149 
 161.2        8.215                                               1051100200150 
 161.6        8.384                                               1051100200151 
 161.9        8.061                                               1051100200152 
 162.3        8.692                                               1051100200153 
 162.5        9.053                                               1051100200154 
 163.0        8.807                                               1051100200155 
 163.2        8.635                                               1051100200156 
 163.6        8.584                                               1051100200157 
 163.9        8.357                                               1051100200158 
 164.3        8.233                                               1051100200159 
 164.5        8.397                                               1051100200160 
 165.0        8.589                                               1051100200161 
 165.2        8.356                                               1051100200162 
 165.6        8.472                                               1051100200163 
 166.3        8.478                                               1051100200164 
 167.0        8.822                                               1051100200165 
 167.7        8.187                                               1051100200166 
 168.3        8.044                                               1051100200167 
 169.0        8.178                                               1051100200168 
 169.7        8.032                                               1051100200169 
 170.3        8.095                                               1051100200170 
 171.0        8.965                                               1051100200171 
 171.7        9.911                                               1051100200172 
 172.3       13.384                                               1051100200173 
 173.0       11.820                                               1051100200174 
 173.7        9.596                                               1051100200175 
 174.3        9.224                                               1051100200176 
 175.0        8.404                                               1051100200177 
 175.7        8.056                                               1051100200178 
 176.3        8.169                                               1051100200179 
 177.0        8.065                                               1051100200180 
 177.6        7.854                                               1051100200181 
 178.3        8.211                                               1051100200182 
 179.0        8.130                                               1051100200183 
 179.6        8.293                                               1051100200184 
 180.3        8.268                                               1051100200185 
 180.9        8.210                                               1051100200186 
 181.6        7.835                                               1051100200187 
 182.2        7.831                                               1051100200188 
 182.9        9.051                                               1051100200189 
 183.6        8.990                                               1051100200190 
 184.2        8.710                                               1051100200191 
 184.9        8.314                                               1051100200192 
 185.5        8.328                                               1051100200193 
 186.2        8.479                                               1051100200194 
 186.8        8.963                                               1051100200195 
 187.5        8.638                                               1051100200196 
 188.1        8.423                                               1051100200197 
 188.8        8.712                                               1051100200198 
 189.4        8.474                                               1051100200199 
 190.1        8.244                                               1051100200200 
 190.7        7.987                                               1051100200201 
 191.4        7.899                                               1051100200202 
 192.0        8.726                                               1051100200203 
 192.6        8.244                                               1051100200204 
 193.3        8.776                                               1051100200205 
 193.9        8.941                                               1051100200206 
 194.6        9.560                                               1051100200207 
 195.2       10.171                                               1051100200208 
 195.9       12.598                                               1051100200209 
 196.5       17.146                                               1051100200210 
 197.2       19.769                                               1051100200211 
 197.8       15.113                                               1051100200212 
 198.4       12.106                                               1051100200213 
 199.1        9.962                                               1051100200214 
 199.7        9.611                                               1051100200215 
 200.4        8.833                                               1051100200216 
 201.0        8.491                                               1051100200217 
 201.6        9.246                                               1051100200218 
 202.3       11.756                                               1051100200219 
 202.9       10.416                                               1051100200220 
 203.1       11.255                                               1051100200221 
 203.5        8.813                                               1051100200222 
 203.8        8.872                                               1051100200223 
 204.2        8.516                                               1051100200224 
 204.4        8.750                                               1051100200225 
 204.8        8.541                                               1051100200226 
