ENTRY            10515   20040427                             00001051500000001 
SUBENT        10515001   20040427                             00001051500100001 
BIB                 11         15                                 1051500100002 
INSTITUTE  (1USACOL)                                              1051500100003 
REFERENCE  (J,PR/C,11,1117,197504)                                1051500100004 
AUTHOR     (U.N.Singh,J.Rainwater,H.J.Liou,G.Hacken,J.B.Garg)     1051500100005 
TITLE      Neutron resonance spectroscopy: Aluminum               1051500100006 
FACILITY   (SYNCH,1USACOL) Nevis synchrocyclotron                 1051500100007 
INC-SOURCE (EVAP) Evaporation neutrons from protons on lead.      1051500100008 
METHOD     (TOF) Time-of-flight                                   1051500100009 
DETECTOR   (SCIN) Scintillation detectors for self-indication     1051500100010 
                  measurements                                    1051500100011 
           (NAICR) Sodium iodide crystals viewing a boron slab.   1051500100012 
CORRECTION Data given have been corrected for background.         1051500100013 
STATUS     (APRVD) Approved by author.                            1051500100014 
HISTORY    (19750522C)                                            1051500100015 
           (19830901A) Converted to REACTION formalism            1051500100016 
           (20040427A) Updated to new date formats, lower case.   1051500100017 
ENDBIB              15          0                                 1051500100018 
NOCOMMON             0          0                                 1051500100019 
ENDSUBENT           18          0                                 1051500199999 
SUBENT        10515002   20040427                             00001051500200001 
BIB                  3          6                                 1051500200002 
REACTION  1(13-AL-27(N,0),,EN)                                    1051500200003 
          2(13-AL-27(N,EL),,WID)                                  1051500200004 
          3(13-AL-27(N,0),,L)                                     1051500200005 
          4(13-AL-27(N,0),,J)                                     1051500200006 
ANALYSIS   (MLA) R-matrix multi-level shape analysis.             1051500200007 
ERR-ANALYS (DATA-ERR) No information on source on uncertainties.  1051500200008 
ENDBIB               6          0                                 1051500200009 
NOCOMMON             0          0                                 1051500200010 
DATA                 5          7                                 1051500200011 
DATA      1DATA      2DATA-ERR  2DATA      3DATA      4           1051500200012 
KEV        KEV        KEV        NO-DIM     NO-DIM                1051500200013 
  5.895     0.017     0.002      1.         1.                    1051500200014 
 34.59      3.00      0.15       0.         2.                    1051500200015 
 85.69     11.0       0.6        0.         3.                    1051500200016 
119.6       3.60      0.30       1.         2.                    1051500200017 
142.0      19.0       2.0        0.         3.                    1051500200018 
158.2       3.2       0.3        1.         3.                    1051500200019 
202.0      14.5       1.5        0.         2.                    1051500200020 
ENDDATA              9          0                                 1051500200021 
ENDSUBENT           20          0                                 1051500299999 
SUBENT        10515003   20040427                             00001051500300001 
BIB                  2          2                                 1051500300002 
REACTION   (13-AL-27(N,EL),,STF)                                  1051500300003 
ERR-ANALYS (DATA-ERR) No information on source on uncertainties.  1051500300004 
ENDBIB               2          0                                 1051500300005 
COMMON               2          3                                 1051500300006 
EN-MIN     EN-MAX                                                 1051500300007 
KEV        KEV                                                    1051500300008 
 5.895      202.0                                                 1051500300009 
ENDCOMMON            3          0                                 1051500300010 
DATA                 4          2                                 1051500300011 
DATA       +DATA-ERR  -DATA-ERR  MOMENTUM L                       1051500300012 
NO-DIM     NO-DIM     NO-DIM     NO-DIM                           1051500300013 
   3.25E-04    4.5E-04    1.7E-04 0.                              1051500300014 
   1.8 E-04    3.5E-04    1.1E-04 1.                              1051500300015 
ENDDATA              4          0                                 1051500300016 
ENDSUBENT           15          0                                 1051500399999 
SUBENT        10515004   20040427                             00001051500400001 
BIB                  2          2                                 1051500400002 
REACTION   (13-AL-27(N,TOT),,SIG)                                 1051500400003 
ERR-ANALYS No information on uncertainties.                       1051500400004 
ENDBIB               2          0                                 1051500400005 
NOCOMMON             0          0                                 1051500400006 
DATA                 2        432                                 1051500400007 
EN         DATA                                                   1051500400008 
EV         B                                                      1051500400009 
4059.0     1.12                                                   1051500400010 
4151.176   1.13                                                   1051500400011 
4246.535   1.10                                                   1051500400012 
4345.211   1.08                                                   1051500400013 
4447.375   1.13                                                   1051500400014 
4553.176   1.09                                                   1051500400015 
4662.801   1.13                                                   1051500400016 
4776.438   1.15                                                   1051500400017 
4894.273   1.14                                                   1051500400018 
5016.531   1.14                                                   1051500400019 
5143.422   1.13                                                   1051500400020 
5275.191   1.15                                                   1051500400021 
5412.090   1.18                                                   1051500400022 
5554.387   1.18                                                   1051500400023 
5632.277   1.20                                                   1051500400024 
5704.      1.36                                                   1051500400025 
5724.      1.44                                                   1051500400026 
5742.7     1.52                                                   1051500400027 
5761.8     1.51                                                   1051500400028 
5781.      1.74                                                   1051500400029 
5800.      2.3                                                    1051500400030 
5820.      2.8                                                    1051500400031 
5834.      3.6                                                    1051500400032 
5844.      4.                                                     1051500400033 
5854.      5.9                                                    1051500400034 
5864.      7.9                                                    1051500400035 
5874.      15.                                                    1051500400036 
5881.      33.                                                    1051500400037 
5886.      43.                                                    1051500400038 
5891.      80.                                                    1051500400039 
5896.      86.                                                    1051500400040 
5901.      78.                                                    1051500400041 
5906.      63.                                                    1051500400042 
5911.      45.                                                    1051500400043 
5916.      21.                                                    1051500400044 
5923.      12.                                                    1051500400045 
5933.      7.4                                                    1051500400046 
5943.      5.                                                     1051500400047 
5959.      3.4                                                    1051500400048 
5978.      2.3                                                    1051500400049 
5999.      1.9                                                    1051500400050 
6019.      1.75                                                   1051500400051 
6040.      1.69                                                   1051500400052 
6070.      1.38                                                   1051500400053 
6109.      1.32                                                   1051500400054 
6130.703   1.14                                                   1051500400055 
6151.789   1.36                                                   1051500400056 
6172.984   1.26                                                   1051500400057 
6194.289   1.18                                                   1051500400058 
6215.703   1.28                                                   1051500400059 
6237.227   1.29                                                   1051500400060 
6258.867   1.19                                                   1051500400061 
6280.617   1.16                                                   1051500400062 
6313.457   1.15                                                   1051500400063 
6402.297   1.20                                                   1051500400064 
6493.027   1.11                                                   1051500400065 
6585.695   1.16                                                   1051500400066 
6680.367   1.17                                                   1051500400067 
6777.094   1.14                                                   1051500400068 
6875.934   1.07                                                   1051500400069 
6976.953   1.11                                                   1051500400070 
7080.219   1.12                                                   1051500400071 
7185.781   1.13                                                   1051500400072 
7293.727   1.19                                                   1051500400073 
7404.141   1.14                                                   1051500400074 
7517.066   1.16                                                   1051500400075 
7632.598   1.13                                                   1051500400076 
7750.809   1.14                                                   1051500400077 
7871.793   1.09                                                   1051500400078 
7995.625   1.17                                                   1051500400079 
8058.645   1.18                                                   1051500400080 
8318.332   1.08                                                   1051500400081 
8612.590   1.08                                                   1051500400082 
8899.723   1.07                                                   1051500400083 
9201.469   1.06                                                   1051500400084 
9518.816   1.02                                                   1051500400085 
9852.863   1.02                                                   1051500400086 
10204.813  1.04                                                   1051500400087 
10575.969  1.02                                                   1051500400088 
10967.738  1.01                                                   1051500400089 
11381.691  0.98                                                   1051500400090 
11819.527  0.98                                                   1051500400091 
12283.117  0.98                                                   1051500400092 
12774.527  0.92                                                   1051500400093 
13296.031  0.93                                                   1051500400094 
13850.148  0.87                                                   1051500400095 
14439.621  0.88                                                   1051500400096 
15067.555  0.88                                                   1051500400097 
15737.363  0.84                                                   1051500400098 
16452.832  0.78                                                   1051500400099 
17218.219  0.76                                                   1051500400100 
18038.313  0.75                                                   1051500400101 
18918.402  0.71                                                   1051500400102 
19864.516  0.67                                                   1051500400103 
20112.113  0.65                                                   1051500400104 
20621.445  0.65                                                   1051500400105 
21150.391  0.67                                                   1051500400106 
21699.918  0.60                                                   1051500400107 
22271.145  0.56                                                   1051500400108 
22865.254  0.50                                                   1051500400109 
23483.430  0.51                                                   1051500400110 
24127.039  0.51                                                   1051500400111 
24797.469  0.51                                                   1051500400112 
25496.223  0.53                                                   1051500400113 
26224.949  0.51                                                   1051500400114 
26985.363  0.58                                                   1051500400115 
27779.540  0.78                                                   1051500400116 
28608.883  0.82                                                   1051500400117 
29476.125  1.11                                                   1051500400118 
30383.430  1.64                                                   1051500400119 
31333.281  2.94                                                   1051500400120 
31455.117  3.11                                                   1051500400121 
31700.992  3.85                                                   1051500400122 
31949.723  4.48                                                   1051500400123 
32201.395  5.20                                                   1051500400124 
32456.066  6.91                                                   1051500400125 
32713.781  8.12                                                   1051500400126 
32974.574  10.25                                                  1051500400127 
33238.448  12.44                                                  1051500400128 
33505.582  17.30                                                  1051500400129 
33775.883  21.50                                                  1051500400130 
34049.508  24.90                                                  1051500400131 
34326.473  31.70                                                  1051500400132 
34606.820  34.70                                                  1051500400133 
34890.598  35.10                                                  1051500400134 
35177.898  31.06                                                  1051500400135 
35468.742  28.43                                                  1051500400136 
35763.234  25.80                                                  1051500400137 
36061.418  21.56                                                  1051500400138 
36363.316  20.30                                                  1051500400139 
36669.027  17.03                                                  1051500400140 
36978.637  14.36                                                  1051500400141 
37292.160  11.96                                                  1051500400142 
37609.672  11.18                                                  1051500400143 
37931.297  10.21                                                  1051500400144 
38257.039  9.75                                                   1051500400145 
38586.996  8.57                                                   1051500400146 
38921.234  7.76                                                   1051500400147 
39259.863  7.29                                                   1051500400148 
39602.879  6.67                                                   1051500400149 
39950.457  6.25                                                   1051500400150 
40480.453  5.47                                                   1051500400151 
41203.680  4.90                                                   1051500400152 
41946.441  4.40                                                   1051500400153 
42709.480  4.06                                                   1051500400154 
43493.543  3.67                                                   1051500400155 
44299.387  3.32                                                   1051500400156 
45127.820  3.08                                                   1051500400157 
45979.727  2.89                                                   1051500400158 
46855.980  2.68                                                   1051500400159 
47457.516  2.52                                                   1051500400160 
48685.320  2.38                                                   1051500400161 
49640.465  2.24                                                   1051500400162 
50623.961  2.08                                                   1051500400163 
51636.992  2.02                                                   1051500400164 
52680.664  1.90                                                   1051500400165 
53756.383  1.86                                                   1051500400166 
54865.359  1.77                                                   1051500400167 
56009.008  1.67                                                   1051500400168 
57188.820  1.55                                                   1051500400169 
58406.293  1.53                                                   1051500400170 
59663.094  1.57                                                   1051500400171 
61375.113  1.66                                                   1051500400172 
62131.512  1.41                                                   1051500400173 
62901.941  1.61                                                   1051500400174 
63686.777  1.60                                                   1051500400175 
64486.398  1.33                                                   1051500400176 
65301.160  1.13                                                   1051500400177 
66131.5    1.45                                                   1051500400178 
66977.750  1.44                                                   1051500400179 
67840.375  1.57                                                   1051500400180 
68719.750  1.88                                                   1051500400181 
69616.375  1.37                                                   1051500400182 
70530.625  1.78                                                   1051500400183 
71463.0    1.77                                                   1051500400184 
72413.938  1.92                                                   1051500400185 
73384.063  2.34                                                   1051500400186 
