ENTRY            10539   20040511                             00001053900000001 
SUBENT        10539001   20040511                             00001053900100001 
BIB                 12         17                                 1053900100002 
INSTITUTE  (1USACOL,1USAALB)                                      1053900100003 
REFERENCE  (J,PR/C,13,124,197601)                                 1053900100004 
           (C,75WASH,2,798,197503)                                1053900100005 
AUTHOR     (U.N.Singh,J.Rainwater,H.I.Liou,G.Hacken,J.B.Garg)     1053900100006 
TITLE      Neutron resonance spectroscopy: 209Bi                  1053900100007 
FACILITY   (SYNCH,1USACOL) Nevis synchrocyclotron                 1053900100008 
INC-SOURCE (EVAP)                                                 1053900100009 
SAMPLE     Natural bismuth                                        1053900100010 
METHOD     (TOF) Time-of-flight, 200 meter path.                  1053900100011 
DETECTOR   (SCIN) Scintillators for self-indication measurement   1053900100012 
           (NAICR) Sodium-iodide crystals for viewing boron slab. 1053900100013 
ERR-ANALYS (DATA-ERR) No information on contributions to          1053900100014 
            uncertainty.                                          1053900100015 
STATUS     (APRVD) Approved by author, 1976/3/22.                 1053900100016 
HISTORY    (19750912C)                                            1053900100017 
           (19830901A) Converted to REACTION formalism            1053900100018 
           (20040511A) Updated to new date formats, lower case.   1053900100019 
ENDBIB              17          0                                 1053900100020 
NOCOMMON             0          0                                 1053900100021 
ENDSUBENT           20          0                                 1053900199999 
SUBENT        10539002   20040511                             00001053900200001 
BIB                  4          6                                 1053900200002 
REACTION  1(83-BI-209(N,0),,EN)                                   1053900200003 
          2(83-BI-209(N,EL),,WID,,G)                              1053900200004 
          3(83-BI-209(N,0),,L)                                    1053900200005 
ANALYSIS   (AREA) Area analysis                                   1053900200006 
CORRECTION Data corrected for Doppler broadening.                 1053900200007 
HISTORY    (19830901A) J moved to subentry 5. Data corrected.     1053900200008 
ENDBIB               6          0                                 1053900200009 
NOCOMMON             0          0                                 1053900200010 
DATA                 4         20                                 1053900200011 
DATA      1DATA      2DATA-ERR  2DATA      3                      1053900200012 
KEV        EV         EV         NO-DIM                           1053900200013 
 3.348       0.08      0.03      1.                               1053900200014 
 4.455       0.120     0.040     1.                               1053900200015 
 6.524       0.28      0.08      1.                               1053900200016 
 9.018       0.16      0.05      1.                               1053900200017 
 9.153       0.12      0.04      1.                               1053900200018 
 9.762       0.11      0.04      1.                               1053900200019 
17.45        0.50      0.15      1.                               1053900200020 
21.05        2.5       0.7       1.                               1053900200021 
25.28        9.5       3.0       1.                               1053900200022 
37.25        6.3       2.0       1.                               1053900200023 
39.19        1.7       0.5       1.                               1053900200024 
42.44        7.        2.        1.                               1053900200025 
44.17        1.4       0.4       1.                               1053900200026 
51.80        3.5       1.0       1.                               1053900200027 
52.84       12.        3.        0.                               1053900200028 
53.85       32.        8.        0.                               1053900200029 
57.60        5.8       1.5       1.                               1053900200030 
61.80       40.        8.        0.                               1053900200031 
67.07        6.7       2.0       1.                               1053900200032 
72.60       12.        4.        1.                               1053900200033 
ENDDATA             22          0                                 1053900200034 
ENDSUBENT           33          0                                 1053900299999 
SUBENT        10539003   20040511                             00001053900300001 
BIB                  2          2                                 1053900300002 
REACTION   (83-BI-209(N,EL),,STF)                                 1053900300003 
HISTORY    (19830901A) Data corrected.                            1053900300004 
ENDBIB               2          0                                 1053900300005 
NOCOMMON             0          0                                 1053900300006 
DATA                 6          2                                 1053900300007 
EN-MIN     EN-MAX     DATA       +DATA-ERR  -DATA-ERR  MOMENTUM L 1053900300008 
KEV        KEV        NO-DIM     NO-DIM     NO-DIM     NO-DIM     1053900300009 
0.800      69.50         0.62E-04   0.36E-04   0.20E-04 0.        1053900300010 
3.348      72.60         0.13E-04   0.06E-04   0.04E-04 1.        1053900300011 
ENDDATA              4          0                                 1053900300012 
ENDSUBENT           11          0                                 1053900399999 
SUBENT        10539004   20040511                             00001053900400001 
BIB                  2          2                                 1053900400002 
REACTION   (83-BI-209(N,TOT),,SIG)                                1053900400003 
STATUS     Data received on tape, Singh, 1975/12.                 1053900400004 
ENDBIB               2          0                                 1053900400005 
NOCOMMON             0          0                                 1053900400006 
DATA                 2        634                                 1053900400007 
EN         DATA                                                   1053900400008 
EV         B                                                      1053900400009 
    507.340       8.86                                            1053900400010 
    524.719       8.73                                            1053900400011 
    543.040       8.98                                            1053900400012 
    562.269       8.27                                            1053900400013 
    582.570       8.58                                            1053900400014 
    604.000       8.23                                            1053900400015 
    626.619       7.80                                            1053900400016 
    650.550       7.73                                            1053900400017 
    675.869       7.42                                            1053900400018 
    702.690       6.69                                            1053900400019 
    731.150       5.53                                            1053900400020 
    734.420       5.07                                            1053900400021 
    737.709       5.27                                            1053900400022 
    741.019       5.17                                            1053900400023 
    744.359       5.19                                            1053900400024 
    747.709       5.00                                            1053900400025 
    751.090       5.00                                            1053900400026 
    754.500       4.95                                            1053900400027 
    757.920       4.45                                            1053900400028 
    761.369       4.69                                            1053900400029 
    764.849       5.31                                            1053900400030 
    768.340       5.31                                            1053900400031 
    771.859       6.42                                            1053900400032 
    775.410       8.46                                            1053900400033 
    778.979      11.23                                            1053900400034 
    782.570      18.79                                            1053900400035 
    786.190      30.08                                            1053900400036 
    788.619      50.34                                            1053900400037 
    789.840      57.70                                            1053900400038 
    791.060      68.84                                            1053900400039 
    792.279     103.16                                            1053900400040 
    793.509     160.74                                            1053900400041 
    794.740     189.24                                            1053900400042 
    795.969     264.02                                            1053900400043 
    797.199     370.27                                            1053900400044 
    798.440     465.12                                            1053900400045 
    799.680     513.68                                            1053900400046 
    800.920     511.63                                            1053900400047 
    802.170     481.30                                            1053900400048 
    803.420     380.98                                            1053900400049 
    804.670     361.15                                            1053900400050 
    805.930     247.15                                            1053900400051 
    807.180     207.02                                            1053900400052 
    808.449     174.42                                            1053900400053 
    809.709     139.08                                            1053900400054 
    810.979     121.06                                            1053900400055 
    812.250     108.56                                            1053900400056 
    813.519      98.33                                            1053900400057 
    814.800      88.09                                            1053900400058 
    816.070      77.46                                            1053900400059 
    817.359      77.91                                            1053900400060 
    818.639      62.19                                            1053900400061 
    819.930      57.10                                            1053900400062 
    821.219      56.44                                            1053900400063 
    822.509      50.34                                            1053900400064 
    823.810      46.51                                            1053900400065 
    825.109      46.41                                            1053900400066 
    826.410      43.24                                            1053900400067 
    827.719      41.58                                            1053900400068 
    829.029      42.28                                            1053900400069 
    831.660      37.19                                            1053900400070 
    835.619      30.74                                            1053900400071 
    839.619      29.53                                            1053900400072 
    843.639      28.02                                            1053900400073 
    847.690      25.95                                            1053900400074 
    851.769      23.58                                            1053900400075 
    855.879      22.93                                            1053900400076 
    864.190      20.62                                            1053900400077 
    876.889      18.36                                            1053900400078 
    889.869      17.00                                            1053900400079 
    903.129      16.57                                            1053900400080 
    916.699      15.47                                            1053900400081 
    930.570      14.70                                            1053900400082 
    959.279      13.91                                            1053900400083 
   1004.909      12.63                                            1053900400084 
   1053.859      12.50                                            1053900400085 
   1106.479      11.88                                            1053900400086 
   1163.149      11.77                                            1053900400087 
   1224.279      11.36                                            1053900400088 
   1290.359      10.94                                            1053900400089 
   1361.939      10.66                                            1053900400090 
   1439.639      10.54                                            1053900400091 
   1524.189      10.52                                            1053900400092 
   1616.409      10.10                                            1053900400093 
   1717.259       9.96                                            1053900400094 
   1827.849       9.65                                            1053900400095 
   1954.209       9.06                                            1053900400096 
   2088.899       8.11                                            1053900400097 
   2164.279       7.21                                            1053900400098 
   2180.969       6.72                                            1053900400099 
   2197.849       6.46                                            1053900400100 
   2214.919       6.92                                            1053900400101 
   2232.199       6.92                                            1053900400102 
   2243.819       8.41                                            1053900400103 
   2249.669       9.41                                            1053900400104 
   2255.539      11.08                                            1053900400105 
   2261.439      11.90                                            1053900400106 
   2267.358      13.94                                            1053900400107 
   2273.299      24.79                                            1053900400108 
   2279.258      31.60                                            1053900400109 
   2285.249      38.15                                            1053900400110 
   2291.259      55.23                                            1053900400111 
   2297.299      79.58                                            1053900400112 
   2303.359     146.83                                            1053900400113 
   2309.439     219.79                                            1053900400114 
   2315.549     305.29                                            1053900400115 
   2321.679     251.25                                            1053900400116 
   2327.829     201.55                                            1053900400117 
   2334.009     119.47                                            1053900400118 
   2340.219      89.56                                            1053900400119 
   2346.448      74.28                                            1053900400120 
   2352.699      62.89                                            1053900400121 
   2358.979      55.69                                            1053900400122 
   2365.289      46.01                                            1053900400123 
   2371.619      39.46                                            1053900400124 
   2377.969      36.74                                            1053900400125 
   2384.348      35.12                                            1053900400126 
   2390.759      32.55                                            1053900400127 
   2397.199      31.19                                            1053900400128 
   2403.649      28.22                                            1053900400129 
   2410.139      28.32                                            1053900400130 
   2416.649      27.06                                            1053900400131 
   2423.189      24.74                                            1053900400132 
   2429.749      22.52                                            1053900400133 
   2436.339      22.34                                            1053900400134 
   2462.979      18.87                                            1053900400135 
   2524.519      16.31                                            1053900400136 
   2588.409      14.62                                            1053900400137 
   2654.749      14.02                                            1053900400138 
   2723.669      13.17                                            1053900400139 
   2795.309      12.87                                            1053900400140 
   2947.339      12.24                                            1053900400141 
   3199.739      11.73                                            1053900400142 
   3224.099      11.79                                            1053900400143 
   3278.928      11.08                                            1053900400144 
   3344.999      15.00                                            1053900400145 
   3348.999      23.50                                            1053900400146 
   3351.999      16.20                                            1053900400147 
   3392.862      11.17                                            1053900400148 
   3432.165      11.34                                            1053900400149 
   3485.999      11.31                                            1053900400150 
   3512.848      11.01                                            1053900400151 
   3575.241      10.99                                            1053900400152 
   3639.311      10.84                                            1053900400153 
   3705.113      10.50                                            1053900400154 
   3772.722      10.94                                            1053900400155 
   3842.199      10.55                                            1053900400156 
   3913.612      10.49                                            1053900400157 
   3987.035      10.94                                            1053900400158 
   4062.537      10.70                                            1053900400159 
   4140.203      10.65                                            1053900400160 
   4220.125      10.57                                            1053900400161 
   4302.387      10.75                                            1053900400162 
   4387.078      10.53                                            1053900400163 
   4415.855      10.30                                            1053900400164 
   4450.996      13.10                                            1053900400165 
   4455.996      21.00                                            1053900400166 
   4460.996      12.00                                            1053900400167 
   4474.289      11.15                                            1053900400168 
   4503.934      10.20                                            1053900400169 
   4564.125      10.16                                            1053900400170 
   4656.691       9.92                                            1053900400171 
   4752.113      10.13                                            1053900400172 
   4850.500       9.33                                            1053900400173 
   4951.969       8.91                                            1053900400174 
   4986.500       8.75                                            1053900400175 
