ENTRY            11414   19820813                             00001141400000001 
SUBENT        11414001   19820813                             00001141400100001 
BIB                  6          9                                 1141400100002 
INSTITUTE  (1USAANL)                                              1141400100003 
REFERENCE  (J,PR,124,500,61)                                      1141400100004 
           (W,HIBDON,6406) TABULATED DATA.                        1141400100005 
AUTHOR     (C.T.HIBDON)                                           1141400100006 
TITLE      NUCLEAR ENERGY LEVELS OF NA24 IN THE REGION FROM 630 TO1141400100007 
           860 KEV.                                               1141400100008 
STATUS     (SCSRS)                                                1141400100009 
HISTORY    (760715T) TRANSLATED FROM SCISRS                       1141400100010 
           (820813A) CONVERTED TO REACTION FORMALISM              1141400100011 
ENDBIB               9          0                                 1141400100012 
NOCOMMON             0          0                                 1141400100013 
ENDSUBENT           12          0                                 1141400199999 
SUBENT        11414002   19820813                             00001141400200001 
BIB                  2          2                                 1141400200002 
REACTION   (11-NA-23(N,TOT),,SIG)                                 1141400200003 
COMMENT    FLAT DETECTION.                                        1141400200004 
ENDBIB               2          0                                 1141400200005 
NOCOMMON             0          0                                 1141400200006 
DATA                 2        252                                 1141400200007 
EN         DATA                                                   1141400200008 
MEV        B                                                      1141400200009 
 6.300  -01 5.05   +00                                            1141400200010 
 6.310  -01 4.18   +00                                            1141400200011 
 6.320  -01 4.55   +00                                            1141400200012 
 6.330  -01 4.38   +00                                            1141400200013 
 6.340  -01 4.00   +00                                            1141400200014 
 6.350  -01 4.53   +00                                            1141400200015 
 6.360  -01 3.90   +00                                            1141400200016 
 6.370  -01 4.32   +00                                            1141400200017 
 6.380  -01 4.75   +00                                            1141400200018 
 6.390  -01 4.25   +00                                            1141400200019 
 6.400  -01 3.95   +00                                            1141400200020 
 6.410  -01 3.87   +00                                            1141400200021 
 6.420  -01 4.68   +00                                            1141400200022 
 6.430  -01 4.57   +00                                            1141400200023 
 6.430  -01 4.53   +00                                            1141400200024 
 6.440  -01 4.25   +00                                            1141400200025 
 6.450  -01 4.70   +00                                            1141400200026 
 6.460  -01 4.47   +00                                            1141400200027 
 6.470  -01 4.65   +00                                            1141400200028 
 6.480  -01 4.55   +00                                            1141400200029 
 6.490  -01 4.03   +00                                            1141400200030 
 6.500  -01 4.01   +00                                            1141400200031 
 6.510  -01 4.55   +00                                            1141400200032 
 6.520  -01 4.67   +00                                            1141400200033 
 6.530  -01 4.37   +00                                            1141400200034 
 6.540  -01 4.68   +00                                            1141400200035 
 6.550  -01 5.06   +00                                            1141400200036 
 6.560  -01 5.01   +00                                            1141400200037 
 6.570  -01 4.80   +00                                            1141400200038 
 6.580  -01 5.03   +00                                            1141400200039 
 6.590  -01 5.16   +00                                            1141400200040 
 6.600  -01 4.76   +00                                            1141400200041 
 6.610  -01 5.03   +00                                            1141400200042 
 6.620  -01 5.34   +00                                            1141400200043 
 6.630  -01 4.98   +00                                            1141400200044 
 6.640  -01 4.69   +00                                            1141400200045 
 6.650  -01 5.34   +00                                            1141400200046 
 6.660  -01 5.70   +00                                            1141400200047 
 6.670  -01 5.14   +00                                            1141400200048 
 6.670  -01 5.06   +00                                            1141400200049 
 6.680  -01 5.25   +00                                            1141400200050 
 6.680  -01 5.18   +00                                            1141400200051 
 6.685  -01 5.56   +00                                            1141400200052 
 6.690  -01 5.76   +00                                            1141400200053 
 6.690  -01 5.71   +00                                            1141400200054 
 6.700  -01 5.50   +00                                            1141400200055 
 6.710  -01 5.75   +00                                            1141400200056 
 6.720  -01 5.71   +00                                            1141400200057 
 6.730  -01 5.56   +00                                            1141400200058 
 6.740  -01 5.70   +00                                            1141400200059 
 6.750  -01 5.66   +00                                            1141400200060 
 6.760  -01 5.85   +00                                            1141400200061 
 6.770  -01 6.28   +00                                            1141400200062 
 6.780  -01 5.95   +00                                            1141400200063 
 6.790  -01 5.85   +00                                            1141400200064 
 6.800  -01 6.34   +00                                            1141400200065 
 6.810  -01 6.38   +00                                            1141400200066 
 6.820  -01 6.78   +00                                            1141400200067 
 6.830  -01 6.34   +00                                            1141400200068 
 6.840  -01 6.62   +00                                            1141400200069 
 6.850  -01 7.44   +00                                            1141400200070 
 6.860  -01 7.64   +00                                            1141400200071 
 6.870  -01 5.97   +00                                            1141400200072 
 6.880  -01 5.98   +00                                            1141400200073 
 6.890  -01 7.44   +00                                            1141400200074 
 6.900  -01 6.90   +00                                            1141400200075 
 6.910  -01 6.97   +00                                            1141400200076 
 6.920  -01 7.75   +00                                            1141400200077 
 6.930  -01 7.52   +00                                            1141400200078 
 6.940  -01 7.33   +00                                            1141400200079 
 6.950  -01 7.25   +00                                            1141400200080 
 6.960  -01 7.72   +00                                            1141400200081 
 6.970  -01 7.57   +00                                            1141400200082 
 6.980  -01 7.33   +00                                            1141400200083 
 6.990  -01 7.66   +00                                            1141400200084 
 7.000  -01 8.00   +00                                            1141400200085 
 7.010  -01 8.17   +00                                            1141400200086 
 7.020  -01 7.56   +00                                            1141400200087 
 7.030  -01 8.00   +00                                            1141400200088 
 7.040  -01 8.30   +00                                            1141400200089 
 7.050  -01 8.13   +00                                            1141400200090 
 7.060  -01 7.75   +00                                            1141400200091 
 7.070  -01 8.74   +00                                            1141400200092 
 7.080  -01 8.02   +00                                            1141400200093 
 7.090  -01 8.37   +00                                            1141400200094 
 7.100  -01 8.39   +00                                            1141400200095 
 7.110  -01 8.39   +00                                            1141400200096 
 7.120  -01 9.21   +00                                            1141400200097 
 7.130  -01 8.75   +00                                            1141400200098 
 7.140  -01 8.15   +00                                            1141400200099 
 7.150  -01 8.64   +00                                            1141400200100 
 7.160  -01 9.66   +00                                            1141400200101 
 7.170  -01 8.83   +00                                            1141400200102 
 7.180  -01 8.03   +00                                            1141400200103 
 7.190  -01 8.71   +00                                            1141400200104 
 7.200  -01 8.28   +00                                            1141400200105 
 7.210  -01 8.82   +00                                            1141400200106 
 7.220  -01 8.50   +00                                            1141400200107 
 7.230  -01 7.85   +00                                            1141400200108 
 7.240  -01 8.38   +00                                            1141400200109 
 7.250  -01 8.00   +00                                            1141400200110 
 7.260  -01 7.55   +00                                            1141400200111 
 7.270  -01 7.36   +00                                            1141400200112 
 7.280  -01 7.71   +00                                            1141400200113 
 7.290  -01 7.21   +00                                            1141400200114 
 7.300  -01 7.14   +00                                            1141400200115 
 7.310  -01 7.63   +00                                            1141400200116 
 7.320  -01 7.06   +00                                            1141400200117 
 7.330  -01 6.47   +00                                            1141400200118 
 7.340  -01 7.39   +00                                            1141400200119 
 7.350  -01 6.54   +00                                            1141400200120 
 7.360  -01 7.03   +00                                            1141400200121 
 7.370  -01 6.52   +00                                            1141400200122 
 7.380  -01 6.31   +00                                            1141400200123 
 7.390  -01 6.05   +00                                            1141400200124 
 7.390  -01 5.94   +00                                            1141400200125 
 7.400  -01 6.42   +00                                            1141400200126 
 7.410  -01 6.39   +00                                            1141400200127 
 7.420  -01 5.69   +00                                            1141400200128 
 7.430  -01 5.20   +00                                            1141400200129 
 7.440  -01 5.65   +00                                            1141400200130 
 7.450  -01 5.13   +00                                            1141400200131 
 7.460  -01 5.00   +00                                            1141400200132 
 7.470  -01 5.39   +00                                            1141400200133 
 7.480  -01 4.76   +00                                            1141400200134 
 7.490  -01 4.94   +00                                            1141400200135 
 7.500  -01 5.07   +00                                            1141400200136 
 7.510  -01 4.75   +00                                            1141400200137 
 7.520  -01 4.93   +00                                            1141400200138 
 7.530  -01 4.44   +00                                            1141400200139 
 7.540  -01 4.13   +00                                            1141400200140 
 7.550  -01 4.19   +00                                            1141400200141 
 7.560  -01 4.47   +00                                            1141400200142 
 7.570  -01 4.63   +00                                            1141400200143 
 7.580  -01 4.09   +00                                            1141400200144 
 7.590  -01 4.05   +00                                            1141400200145 
 7.600  -01 4.48   +00                                            1141400200146 
 7.610  -01 4.14   +00                                            1141400200147 
 7.620  -01 4.17   +00                                            1141400200148 
 7.630  -01 4.82   +00                                            1141400200149 
 7.640  -01 4.53   +00                                            1141400200150 
 7.650  -01 4.60   +00                                            1141400200151 
 7.660  -01 4.88   +00                                            1141400200152 
 7.665  -01 5.42   +00                                            1141400200153 
 7.670  -01 5.95   +00                                            1141400200154 
 7.680  -01 5.68   +00                                            1141400200155 
 7.680  -01 5.71   +00                                            1141400200156 
 7.690  -01 6.02   +00                                            1141400200157 
 7.700  -01 5.69   +00                                            1141400200158 
 7.710  -01 6.44   +00                                            1141400200159 
 7.720  -01 6.85   +00                                            1141400200160 
 7.730  -01 6.97   +00                                            1141400200161 
 7.740  -01 6.56   +00                                            1141400200162 
 7.750  -01 6.35   +00                                            1141400200163 
 7.750  -01 6.27   +00                                            1141400200164 
 7.760  -01 6.41   +00                                            1141400200165 
 7.760  -01 6.33   +00                                            1141400200166 
 7.770  -01 6.56   +00                                            1141400200167 
 7.770  -01 6.45   +00                                            1141400200168 
 7.780  -01 7.01   +00                                            1141400200169 
 7.780  -01 6.89   +00                                            1141400200170 
 7.790  -01 7.21   +00                                            1141400200171 
 7.790  -01 7.16   +00                                            1141400200172 
 7.800  -01 7.02   +00                                            1141400200173 
 7.810  -01 6.69   +00                                            1141400200174 
 7.820  -01 6.85   +00                                            1141400200175 
 7.830  -01 6.76   +00                                            1141400200176 
 7.840  -01 6.47   +00                                            1141400200177 
 7.850  -01 6.53   +00                                            1141400200178 
 7.860  -01 7.39   +00                                            1141400200179 
 7.870  -01 7.06   +00                                            1141400200180 
 7.880  -01 6.35   +00                                            1141400200181 
 7.890  -01 6.28   +00                                            1141400200182 
 7.900  -01 6.16   +00                                            1141400200183 
 7.910  -01 6.68   +00                                            1141400200184 
 7.920  -01 7.00   +00                                            1141400200185 
 7.930  -01 6.09   +00                                            1141400200186 
 7.940  -01 5.95   +00                                            1141400200187 
 7.950  -01 6.00   +00                                            1141400200188 
 7.960  -01 6.45   +00                                            1141400200189 
 7.970  -01 5.77   +00                                            1141400200190 
 7.980  -01 6.10   +00                                            1141400200191 
 7.980  -01 6.00   +00                                            1141400200192 
 7.990  -01 6.44   +00                                            1141400200193 
 7.990  -01 6.38   +00                                            1141400200194 
 8.000  -01 6.09   +00                                            1141400200195 
 8.000  -01 6.06   +00                                            1141400200196 
 8.010  -01 6.07   +00                                            1141400200197 
 8.010  -01 6.03   +00                                            1141400200198 
 8.020  -01 5.72   +00                                            1141400200199 
 8.020  -01 5.68   +00                                            1141400200200 
 8.030  -01 5.60   +00                                            1141400200201 
 8.030  -01 5.54   +00                                            1141400200202 
 8.040  -01 5.47   +00                                            1141400200203 
 8.040  -01 5.35   +00                                            1141400200204 
 8.050  -01 5.66   +00                                            1141400200205 
 8.050  -01 5.57   +00                                            1141400200206 
 8.060  -01 5.71   +00                                            1141400200207 
 8.070  -01 5.75   +00                                            1141400200208 
 8.080  -01 5.39   +00                                            1141400200209 
 8.090  -01 5.28   +00                                            1141400200210 
 8.100  -01 5.06   +00                                            1141400200211 
 8.110  -01 5.00   +00                                            1141400200212 
 8.120  -01 5.12   +00                                            1141400200213 
 8.130  -01 5.60   +00                                            1141400200214 
 8.140  -01 5.50   +00                                            1141400200215 
 8.150  -01 5.03   +00                                            1141400200216 
 8.160  -01 4.66   +00                                            1141400200217 
 8.170  -01 4.68   +00                                            1141400200218 
 8.180  -01 5.10   +00                                            1141400200219 
 8.190  -01 4.89   +00                                            1141400200220 
 8.200  -01 4.68   +00                                            1141400200221 
 8.210  -01 5.08   +00                                            1141400200222 
 8.220  -01 5.30   +00                                            1141400200223 
 8.230  -01 4.85   +00                                            1141400200224 
 8.240  -01 4.97   +00                                            1141400200225 
 8.250  -01 4.80   +00                                            1141400200226 
 8.260  -01 4.97   +00                                            1141400200227 
 8.270  -01 4.28   +00                                            1141400200228 
 8.280  -01 4.06   +00                                            1141400200229 
 8.290  -01 4.17   +00                                            1141400200230 
 8.300  -01 4.98   +00                                            1141400200231 
