ENTRY            11410   19820813                             00001141000000001 
SUBENT        11410001   19820813                             00001141000100001 
BIB                  6          8                                 1141000100002 
INSTITUTE  (1USAANL)                                              1141000100003 
REFERENCE  (J,PR,118,514,60)                                      1141000100004 
           (W,HIBDON,6406) TABULATED DATA.                        1141000100005 
AUTHOR     (C.T.HIBDON)                                           1141000100006 
TITLE      NUCLEAR ENERGY LEVELS OF NA24.                         1141000100007 
STATUS     (SCSRS)                                                1141000100008 
HISTORY    (761016T) TRANSLATED FROM SCISRS                       1141000100009 
           (820813A) CONVERTED TO REACTION FORMALISM              1141000100010 
ENDBIB               8          0                                 1141000100011 
NOCOMMON             0          0                                 1141000100012 
ENDSUBENT           11          0                                 1141000199999 
SUBENT        11410002   19820813                             00001141000200001 
BIB                  2          2                                 1141000200002 
REACTION   (11-NA-23(N,TOT),,SIG)                                 1141000200003 
COMMENT    FLAT DETECTION.                                        1141000200004 
ENDBIB               2          0                                 1141000200005 
NOCOMMON             0          0                                 1141000200006 
DATA                 2        702                                 1141000200007 
EN         DATA                                                   1141000200008 
MEV        B                                                      1141000200009 
 1.00   -03 3.40   +00                                            1141000200010 
 1.10   -03 3.40   +00                                            1141000200011 
 1.20   -03 3.90   +00                                            1141000200012 
 1.45   -03 3.70   +00                                            1141000200013 
 1.70   -03 4.40   +00                                            1141000200014 
 1.95   -03 5.60   +00                                            1141000200015 
 2.00   -03 5.70   +00                                            1141000200016 
 2.20   -03 6.40   +00                                            1141000200017 
 2.45   -03 1.280  +01                                            1141000200018 
 2.50   -03 1.530  +01                                            1141000200019 
 2.55   -03 2.180  +01                                            1141000200020 
 2.65   -03 3.400  +01                                            1141000200021 
 2.70   -03 6.000  +01                                            1141000200022 
 2.75   -03 9.640  +01                                            1141000200023 
 2.80   -03 1.188  +02                                            1141000200024 
 2.85   -03 1.564  +02                                            1141000200025 
 2.90   -03 1.824  +02                                            1141000200026 
 2.95   -03 2.060  +02                                            1141000200027 
 3.00   -03 1.960  +02                                            1141000200028 
 3.10   -03 1.563  +02                                            1141000200029 
 3.15   -03 1.306  +02                                            1141000200030 
 3.20   -03 1.132  +02                                            1141000200031 
 3.25   -03 1.040  +02                                            1141000200032 
 3.30   -03 9.020  +01                                            1141000200033 
 3.35   -03 7.610  +01                                            1141000200034 
 3.40   -03 6.030  +01                                            1141000200035 
 3.50   -03 4.980  +01                                            1141000200036 
 3.60   -03 3.940  +01                                            1141000200037 
 3.70   -03 2.860  +01                                            1141000200038 
 3.80   -03 2.670  +01                                            1141000200039 
 4.00   -03 2.160  +01                                            1141000200040 
 4.25   -03 1.920  +01                                            1141000200041 
 4.50   -03 1.610  +01                                            1141000200042 
 5.00   -03 1.220  +01                                            1141000200043 
 5.50   -03 1.000  +01                                            1141000200044 
 6.00   -03 8.50   +00                                            1141000200045 
 6.50   -03 7.65   +00                                            1141000200046 
 7.00   -03 7.20   +00                                            1141000200047 
 7.50   -03 6.40   +00                                            1141000200048 
 8.00   -03 6.80   +00                                            1141000200049 
 8.50   -03 6.85   +00                                            1141000200050 
 9.00   -03 6.30   +00                                            1141000200051 
 9.50   -03 6.20   +00                                            1141000200052 
 1.000  -02 6.15   +00                                            1141000200053 
 1.000  -02 5.90   +00                                            1141000200054 
 1.050  -02 6.02   +00                                            1141000200055 
 1.050  -02 5.50   +00                                            1141000200056 
 1.050  -02 5.85   +00                                            1141000200057 
 1.100  -02 5.90   +00                                            1141000200058 
 1.100  -02 5.60   +00                                            1141000200059 
 1.100  -02 5.75   +00                                            1141000200060 
 1.150  -02 5.75   +00                                            1141000200061 
 1.200  -02 5.65   +00                                            1141000200062 
 1.200  -02 5.12   +00                                            1141000200063 
 1.200  -02 5.38   +00                                            1141000200064 
 1.250  -02 5.48   +00                                            1141000200065 
 1.300  -02 5.42   +00                                            1141000200066 
 1.300  -02 5.35   +00                                            1141000200067 
 1.350  -02 5.15   +00                                            1141000200068 
 1.400  -02 5.15   +00                                            1141000200069 
 1.400  -02 4.65   +00                                            1141000200070 
 1.400  -02 5.10   +00                                            1141000200071 
 1.450  -02 5.10   +00                                            1141000200072 
 1.450  -02 4.95   +00                                            1141000200073 
 1.500  -02 5.08   +00                                            1141000200074 
 1.500  -02 4.75   +00                                            1141000200075 
 1.500  -02 4.95   +00                                            1141000200076 
 1.550  -02 4.85   +00                                            1141000200077 
 1.550  -02 4.63   +00                                            1141000200078 
 1.600  -02 4.92   +00                                            1141000200079 
 1.600  -02 4.80   +00                                            1141000200080 
 1.650  -02 4.80   +00                                            1141000200081 
 1.700  -02 4.90   +00                                            1141000200082 
 1.700  -02 4.65   +00                                            1141000200083 
 1.750  -02 6.05   +00                                            1141000200084 
 1.750  -02 4.75   +00                                            1141000200085 
 1.800  -02 4.85   +00                                            1141000200086 
 1.800  -02 4.55   +00                                            1141000200087 
 1.850  -02 4.84   +00                                            1141000200088 
 1.850  -02 4.65   +00                                            1141000200089 
 1.850  -02 4.75   +00                                            1141000200090 
 1.900  -02 4.68   +00                                            1141000200091 
 1.900  -02 4.40   +00                                            1141000200092 
 1.900  -02 4.51   +00                                            1141000200093 
 1.950  -02 4.47   +00                                            1141000200094 
 1.950  -02 4.32   +00                                            1141000200095 
 2.000  -02 4.65   +00                                            1141000200096 
 2.000  -02 4.35   +00                                            1141000200097 
 2.050  -02 4.58   +00                                            1141000200098 
 2.050  -02 4.43   +00                                            1141000200099 
 2.100  -02 4.40   +00                                            1141000200100 
 2.100  -02 4.10   +00                                            1141000200101 
 2.150  -02 4.65   +00                                            1141000200102 
 2.150  -02 4.35   +00                                            1141000200103 
 2.200  -02 4.60   +00                                            1141000200104 
 2.200  -02 4.15   +00                                            1141000200105 
 2.250  -02 4.40   +00                                            1141000200106 
 2.250  -02 4.10   +00                                            1141000200107 
 2.300  -02 4.55   +00                                            1141000200108 
 2.350  -02 4.65   +00                                            1141000200109 
 2.350  -02 4.45   +00                                            1141000200110 
 2.400  -02 4.68   +00                                            1141000200111 
 2.400  -02 4.21   +00                                            1141000200112 
 2.450  -02 4.64   +00                                            1141000200113 
 2.450  -02 4.15   +00                                            1141000200114 
 2.500  -02 4.30   +00                                            1141000200115 
 2.500  -02 4.15   +00                                            1141000200116 
 2.550  -02 4.80   +00                                            1141000200117 
 2.550  -02 4.30   +00                                            1141000200118 
 2.600  -02 4.15   +00                                            1141000200119 
 2.600  -02 3.95   +00                                            1141000200120 
 2.650  -02 4.22   +00                                            1141000200121 
 2.650  -02 4.00   +00                                            1141000200122 
 2.700  -02 4.60   +00                                            1141000200123 
 2.700  -02 4.45   +00                                            1141000200124 
 2.750  -02 4.52   +00                                            1141000200125 
 2.750  -02 4.12   +00                                            1141000200126 
 2.800  -02 4.35   +00                                            1141000200127 
 2.850  -02 4.60   +00                                            1141000200128 
 2.850  -02 4.30   +00                                            1141000200129 
 2.900  -02 4.75   +00                                            1141000200130 
 2.900  -02 4.45   +00                                            1141000200131 
 2.950  -02 4.65   +00                                            1141000200132 
 2.950  -02 4.15   +00                                            1141000200133 
 3.000  -02 4.20   +00                                            1141000200134 
 3.000  -02 4.00   +00                                            1141000200135 
 3.050  -02 4.30   +00                                            1141000200136 
 3.050  -02 4.00   +00                                            1141000200137 
 3.100  -02 4.40   +00                                            1141000200138 
 3.100  -02 4.05   +00                                            1141000200139 
 3.150  -02 4.22   +00                                            1141000200140 
 3.200  -02 4.22   +00                                            1141000200141 
 3.250  -02 4.25   +00                                            1141000200142 
 3.300  -02 3.97   +00                                            1141000200143 
 3.350  -02 4.05   +00                                            1141000200144 
 3.400  -02 4.04   +00                                            1141000200145 
 3.450  -02 4.00   +00                                            1141000200146 
 3.500  -02 4.20   +00                                            1141000200147 
 3.550  -02 4.13   +00                                            1141000200148 
 3.600  -02 4.11   +00                                            1141000200149 
 3.650  -02 4.17   +00                                            1141000200150 
 3.700  -02 4.12   +00                                            1141000200151 
 3.750  -02 4.06   +00                                            1141000200152 
 3.800  -02 3.94   +00                                            1141000200153 
 3.850  -02 3.83   +00                                            1141000200154 
 3.900  -02 4.01   +00                                            1141000200155 
 3.950  -02 3.72   +00                                            1141000200156 
 4.000  -02 4.02   +00                                            1141000200157 
 4.050  -02 4.00   +00                                            1141000200158 
 4.100  -02 3.76   +00                                            1141000200159 
 4.150  -02 3.74   +00                                            1141000200160 
 4.200  -02 3.77   +00                                            1141000200161 
 4.250  -02 4.01   +00                                            1141000200162 
 4.300  -02 3.58   +00                                            1141000200163 
 4.350  -02 3.75   +00                                            1141000200164 
 4.400  -02 3.73   +00                                            1141000200165 
 4.450  -02 3.68   +00                                            1141000200166 
 4.500  -02 3.84   +00                                            1141000200167 
 4.550  -02 3.86   +00                                            1141000200168 
 4.600  -02 3.75   +00                                            1141000200169 
 4.650  -02 3.85   +00                                            1141000200170 
 4.700  -02 3.72   +00                                            1141000200171 
 4.750  -02 3.71   +00                                            1141000200172 
 4.800  -02 3.80   +00                                            1141000200173 
 4.850  -02 3.90   +00                                            1141000200174 
 4.850  -02 3.78   +00                                            1141000200175 
 4.900  -02 3.95   +00                                            1141000200176 
 4.900  -02 3.80   +00                                            1141000200177 
 4.950  -02 3.95   +00                                            1141000200178 
 4.950  -02 3.85   +00                                            1141000200179 
 5.000  -02 4.00   +00                                            1141000200180 
 5.025  -02 4.00   +00                                            1141000200181 
 5.050  -02 4.15   +00                                            1141000200182 
 5.050  -02 4.00   +00                                            1141000200183 
 5.100  -02 4.25   +00                                            1141000200184 
 5.150  -02 4.65   +00                                            1141000200185 
 5.200  -02 5.20   +00                                            1141000200186 
 5.200  -02 4.88   +00                                            1141000200187 
 5.200  -02 5.04   +00                                            1141000200188 
 5.230  -02 5.65   +00                                            1141000200189 
 5.250  -02 6.20   +00                                            1141000200190 
 5.250  -02 6.00   +00                                            1141000200191 
 5.300  -02 7.98   +00                                            1141000200192 
 5.300  -02 7.85   +00                                            1141000200193 
 5.330  -02 1.000  +01                                            1141000200194 
 5.350  -02 1.282  +01                                            1141000200195 
 5.350  -02 1.330  +01                                            1141000200196 
 5.370  -02 1.600  +01                                            1141000200197 
 5.370  -02 1.655  +01                                            1141000200198 
 5.380  -02 1.840  +01                                            1141000200199 
 5.390  -02 1.950  +01                                            1141000200200 
 5.390  -02 2.010  +01                                            1141000200201 
 5.400  -02 2.210  +01                                            1141000200202 
 5.405  -02 2.470  +01                                            1141000200203 
 5.410  -02 2.800  +01                                            1141000200204 
 5.415  -02 2.390  +01                                            1141000200205 
 5.430  -02 2.290  +01                                            1141000200206 
 5.450  -02 2.090  +01                                            1141000200207 
 5.450  -02 2.165  +01                                            1141000200208 
 5.470  -02 1.775  +01                                            1141000200209 
 5.470  -02 1.785  +01                                            1141000200210 
 5.475  -02 1.550  +01                                            1141000200211 
 5.485  -02 1.380  +01                                            1141000200212 
 5.485  -02 1.395  +01                                            1141000200213 
 5.500  -02 1.105  +01                                            1141000200214 
 5.505  -02 1.180  +01                                            1141000200215 
 5.505  -02 1.195  +01                                            1141000200216 
 5.510  -02 1.310  +01                                            1141000200217 
 5.515  -02 1.410  +01                                            1141000200218 
 5.525  -02 1.300  +01                                            1141000200219 
 5.535  -02 1.100  +01                                            1141000200220 
 5.550  -02 9.70   +00                                            1141000200221 
 5.575  -02 8.15   +00                                            1141000200222 
 5.600  -02 7.05   +00                                            1141000200223 
 5.625  -02 6.55   +00                                            1141000200224 
 5.650  -02 6.10   +00                                            1141000200225 
 5.675  -02 5.90   +00                                            1141000200226 
 5.700  -02 5.90   +00                                            1141000200227 
 5.725  -02 5.38   +00                                            1141000200228 
 5.750  -02 5.37   +00                                            1141000200229 
 5.775  -02 5.10   +00                                            1141000200230 
 5.800  -02 5.06   +00                                            1141000200231 
 5.825  -02 5.04   +00                                            1141000200232 
