ENTRY            12144   19830812                             00001214400000001 
SUBENT        12144001   19830812                             00001214400100001 
BIB                  7          8                                 1214400100002 
INSTITUTE  (1USAANL)                                              1214400100003 
REFERENCE  (C,66PARIS,1,399,6610)                                 1214400100004 
AUTHOR     (A.B.SMITH,D.LISTER,J.F.WHALEN)                        1214400100005 
TITLE      MICROSCOPIC NEUTRON SCATTERING CROSS-SECTIONS FOR REACT1214400100006 
           DESIGN                                                 1214400100007 
FACILITY   (VDG)                                                  1214400100008 
METHOD     (TOF)                                                  1214400100009 
HISTORY    (830614C)                                              1214400100010 
ENDBIB               8          0                                 1214400100011 
NOCOMMON             0          0                                 1214400100012 
ENDSUBENT           11          0                                 1214400199999 
SUBENT        12144002   19860407                             00001214400200001 
BIB                  4          4                                 1214400200002 
REACTION   (26-FE-0(N,EL)26-FE-0,,SIG)                            1214400200003 
ERR-ANALYS ESTIMATED CROSS-SECTION ERROR IS 5 - 8 PERCENT.        1214400200004 
STATUS     (COREL,12144003) TAKEN FROM PRIVATE COMM, SMITH,68/4   1214400200005 
HISTORY    (860407A) REACTION PRODUCT ADDED.                      1214400200006 
ENDBIB               4          0                                 1214400200007 
COMMON               1          3                                 1214400200008 
EN-RSL                                                            1214400200009 
KEV                                                               1214400200010 
 50.                                                              1214400200011 
ENDCOMMON            3          0                                 1214400200012 
DATA                 2         95                                 1214400200013 
EN         DATA                                                   1214400200014 
KEV        B                                                      1214400200015 
 318.       3.58                                                  1214400200016 
 322.       3.65                                                  1214400200017 
 334.       3.72                                                  1214400200018 
 347.       3.79                                                  1214400200019 
 353.       3.40                                                  1214400200020 
 374.       3.21                                                  1214400200021 
 381.       3.38                                                  1214400200022 
 396.       3.68                                                  1214400200023 
 412.       4.00                                                  1214400200024 
 428.       3.99                                                  1214400200025 
 443.       4.01                                                  1214400200026 
 459.       3.84                                                  1214400200027 
 474.       3.63                                                  1214400200028 
 483.       3.47                                                  1214400200029 
 514.       3.34                                                  1214400200030 
 525.       3.25                                                  1214400200031 
 535.       3.28                                                  1214400200032 
 545.       3.11                                                  1214400200033 
 549.       3.07                                                  1214400200034 
 556.       3.13                                                  1214400200035 
 571.       2.71                                                  1214400200036 
 579.       2.62                                                  1214400200037 
 597.       2.21                                                  1214400200038 
 626.       1.99                                                  1214400200039 
 641.       2.18                                                  1214400200040 
 662.       2.43                                                  1214400200041 
 674.       2.38                                                  1214400200042 
 681.       2.52                                                  1214400200043 
 700.       2.78                                                  1214400200044 
 712.       2.59                                                  1214400200045 
 725.       2.85                                                  1214400200046 
 737.       3.27                                                  1214400200047 
 749.       3.48                                                  1214400200048 
 762.       3.65                                                  1214400200049 
 774.       3.77                                                  1214400200050 
 781.       3.88                                                  1214400200051 
 800.       3.84                                                  1214400200052 
 812.       3.80                                                  1214400200053 
 825.       3.45                                                  1214400200054 
 837.       3.49                                                  1214400200055 
 849.       3.28                                                  1214400200056 
 862.       3.25                                                  1214400200057 
 874.       2.99                                                  1214400200058 
 887.       3.06                                                  1214400200059 
 899.       2.95                                                  1214400200060 
 912.       2.87                                                  1214400200061 
 924.       2.46                                                  1214400200062 
 937.       2.39                                                  1214400200063 
 948.       2.14                                                  1214400200064 
 961.       2.06                                                  1214400200065 
 967.       1.92                                                  1214400200066 
 982.       2.16                                                  1214400200067 
 989.       2.24                                                  1214400200068 
1008.       2.41                                                  1214400200069 
1039.       2.63                                                  1214400200070 
1052.       2.69                                                  1214400200071 
1067.       2.76                                                  1214400200072 
1071.       2.79                                                  1214400200073 
1087.       2.55                                                  1214400200074 
1112.       2.38                                                  1214400200075 
1123.       2.33                                                  1214400200076 
1132.       2.25                                                  1214400200077 
1135.       2.29                                                  1214400200078 
1137.       2.28                                                  1214400200079 
1140.       2.27                                                  1214400200080 
1145.       2.28                                                  1214400200081 
1178.       2.06                                                  1214400200082 
1193.       2.02                                                  1214400200083 
1226.       2.29                                                  1214400200084 
1230.       2.34                                                  1214400200085 
1235.       2.43                                                  1214400200086 
1248.       2.51                                                  1214400200087 
1257.       2.61                                                  1214400200088 
1260.       2.61                                                  1214400200089 
1275.       2.39                                                  1214400200090 
1279.       2.36                                                  1214400200091 
1289.       2.39                                                  1214400200092 
1299.       2.27                                                  1214400200093 
1310.       2.33                                                  1214400200094 
1324.       2.28                                                  1214400200095 
1329.       2.36                                                  1214400200096 
1339.       2.42                                                  1214400200097 
1349.       2.43                                                  1214400200098 
1360.       2.42                                                  1214400200099 
1378.       2.29                                                  1214400200100 
1382.       2.30                                                  1214400200101 
1390.       2.29                                                  1214400200102 
1399.       2.17                                                  1214400200103 
1408.       2.14                                                  1214400200104 
1421.       2.08                                                  1214400200105 
1424.       2.07                                                  1214400200106 
1429.       2.08                                                  1214400200107 
1439.       2.17                                                  1214400200108 
1449.       2.19                                                  1214400200109 
1460.       2.34                                                  1214400200110 
ENDDATA             97          0                                 1214400200111 
ENDSUBENT          110          0                                 1214400299999 
SUBENT        12144003   19860407                             00001214400300001 
BIB                  3          3                                 1214400300002 
REACTION   (26-FE-0(N,EL)26-FE-0,,DA,,LEG)                        1214400300003 
STATUS     (COREL,12144002) TAKEN FROM PRIVATE COMM, SMITH,68/4   1214400300004 
HISTORY    (860407A) REACTION PRODUCT ADDED.                      1214400300005 
ENDBIB               3          0                                 1214400300006 
COMMON               1          3                                 1214400300007 
EN-RSL                                                            1214400300008 
KEV                                                               1214400300009 
 50.                                                              1214400300010 
ENDCOMMON            3          0                                 1214400300011 
DATA                 4        470                                 1214400300012 
EN         NUMBER     DATA       DATA-ERR                         1214400300013 
KEV        NO-DIM     NO-DIM     NO-DIM                           1214400300014 
 318.       1.         0.394      0.054                           1214400300015 
 318.       2.         0.231      0.076                           1214400300016 
 318.       3.         0.023      0.099                           1214400300017 
 318.       4.         0.075      0.065                           1214400300018 
 318.       5.         0.014      0.017                           1214400300019 
 322.       1.         0.396      0.051                           1214400300020 
 322.       2.         0.269      0.072                           1214400300021 
 322.       3.         0.006      0.094                           1214400300022 
 322.       4.         0.091      0.078                           1214400300023 
 322.       5.         0.017      0.020                           1214400300024 
 334.       1.         0.397      0.044                           1214400300025 
 334.       2.         0.283      0.072                           1214400300026 
 334.       3.         0.006      0.097                           1214400300027 
 334.       4.         0.080      0.081                           1214400300028 
 334.       5.         0.002      0.046                           1214400300029 
 347.       1.         0.337      0.042                           1214400300030 
 347.       2.         0.230      0.070                           1214400300031 
 347.       3.        -0.070      0.094                           1214400300032 
 347.       4.         0.071      0.078                           1214400300033 
 347.       5.        -0.014      0.041                           1214400300034 
 353.       1.         0.351      0.032                           1214400300035 
 353.       2.         0.241      0.059                           1214400300036 
 353.       3.        -0.039      0.082                           1214400300037 
 353.       4.         0.089      0.098                           1214400300038 
 353.       5.        -0.018      0.052                           1214400300039 
 374.       1.         0.275      0.018                           1214400300040 
 374.       2.         0.181      0.036                           1214400300041 
 374.       3.         0.022      0.055                           1214400300042 
 374.       4.         0.078      0.058                           1214400300043 
 374.       5.        -0.003      0.045                           1214400300044 
 381.       1.         0.288      0.017                           1214400300045 
 381.       2.         0.185      0.037                           1214400300046 
 381.       3.        -0.004      0.058                           1214400300047 
 381.       4.         0.082      0.060                           1214400300048 
 381.       5.        -0.004      0.057                           1214400300049 
 396.       1.         0.221      0.024                           1214400300050 
 396.       2.         0.107      0.033                           1214400300051 
 396.       3.         0.006      0.051                           1214400300052 
 396.       4.         0.045      0.053                           1214400300053 
 396.       5.         0.011      0.047                           1214400300054 
 412.       1.         0.286      0.022                           1214400300055 
 412.       2.         0.144      0.030                           1214400300056 
 412.       3.         0.049      0.045                           1214400300057 
 412.       4.         0.034      0.047                           1214400300058 
 412.       5.        -0.004      0.040                           1214400300059 
 428.       1.         0.317      0.025                           1214400300060 
 428.       2.         0.205      0.035                           1214400300061 
 428.       3.         0.037      0.052                           1214400300062 
 428.       4.         0.009      0.054                           1214400300063 
 428.       5.        -0.018      0.035                           1214400300064 
 443.       1.         0.526      0.024                           1214400300065 
 443.       2.         0.296      0.031                           1214400300066 
 443.       3.         0.054      0.048                           1214400300067 
 443.       4.        -0.002      0.052                           1214400300068 
 443.       5.        -0.040      0.053                           1214400300069 
 459.       1.         0.655      0.019                           1214400300070 
 459.       2.         0.375      0.026                           1214400300071 
 459.       3.         0.068      0.039                           1214400300072 
 459.       4.         0.036      0.043                           1214400300073 
 459.       5.        -0.006      0.041                           1214400300074 
 474.       1.         0.579      0.022                           1214400300075 
 474.       2.         0.363      0.031                           1214400300076 
 474.       3.         0.058      0.045                           1214400300077 
 474.       4.         0.074      0.049                           1214400300078 
 474.       5.         0.009      0.028                           1214400300079 
 483.       1.         0.635      0.023                           1214400300080 
 483.       2.         0.376      0.031                           1214400300081 
 483.       3.         0.092      0.046                           1214400300082 
 483.       4.         0.086      0.050                           1214400300083 
 483.       5.         0.012      0.037                           1214400300084 
 514.       1.         0.661      0.022                           1214400300085 
 514.       2.         0.422      0.030                           1214400300086 
 514.       3.         0.110      0.044                           1214400300087 
 514.       4.         0.071      0.049                           1214400300088 
 514.       5.         0.001      0.038                           1214400300089 
 525.       1.         0.648      0.023                           1214400300090 
 525.       2.         0.424      0.032                           1214400300091 
 525.       3.         0.091      0.046                           1214400300092 
 525.       4.         0.074      0.051                           1214400300093 
 525.       5.        -0.019      0.031                           1214400300094 
 535.       1.         0.728      0.020                           1214400300095 
 535.       2.         0.477      0.027                           1214400300096 
 535.       3.         0.114      0.041                           1214400300097 
 535.       4.         0.063      0.044                           1214400300098 
 535.       5.        -0.029      0.037                           1214400300099 
 545.       1.         0.767      0.024                           1214400300100 
 545.       2.         0.504      0.028                           1214400300101 
 545.       3.         0.108      0.043                           1214400300102 
 545.       4.         0.056      0.045                           1214400300103 
 545.       5.        -0.029      0.027                           1214400300104 
 549.       1.         0.802      0.023                           1214400300105 
 549.       2.         0.537      0.027                           1214400300106 
 549.       3.         0.122      0.040                           1214400300107 
 549.       4.         0.066      0.042                           1214400300108 
 549.       5.        -0.017      0.018                           1214400300109 
 556.       1.         0.841      0.024                           1214400300110 
 556.       2.         0.559      0.026                           1214400300111 
 556.       3.         0.120      0.041                           1214400300112 
 556.       4.         0.062      0.042                           1214400300113 
 556.       5.        -0.021      0.022                           1214400300114 
 571.       1.         0.876      0.021                           1214400300115 
 571.       2.         0.561      0.023                           1214400300116 
 571.       3.         0.097      0.034                           1214400300117 
 571.       4.         0.050      0.035                           1214400300118 
 571.       5.        -0.014      0.010                           1214400300119 
 579.       1.         0.966      0.022                           1214400300120 
