ENTRY            12154   19821012                             00001215400000001 
SUBENT        12154001   19821012                             00001215400100001 
BIB                  7          9                                 1215400100002 
INSTITUTE  (1USAORL)                                              1215400100003 
REFERENCE  (J,BAP,3,177(F11),5804)                                1215400100004 
           (W,HARVEY,5803) TABULATED DATA                         1215400100005 
AUTHOR     (J.A.HARVEY,G.G.SLAUGHTER,R.C.BLOCK)                   1215400100006 
TITLE      SPIN STATES FOR RESONANCES IN W183, AG107 AND AG109.   1215400100007 
FACILITY   (CHOPF) FAST CHOPPER                                   1215400100008 
STATUS     (SCSRS)                                                1215400100009 
HISTORY    (760803T) TRANSLATED FROM SCISRS                       1215400100010 
           (821012A) CONVERTED TO REACTION FORMALISM              1215400100011 
ENDBIB               9          0                                 1215400100012 
NOCOMMON             0          0                                 1215400100013 
ENDSUBENT           12          0                                 1215400199999 
SUBENT        12154002   19821012                             00001215400200001 
BIB                  3          3                                 1215400200002 
REACTION   (47-AG-0(N,TOT),,SIG)                                  1215400200003 
SAMPLE     THIN SAMPLE.                                           1215400200004 
COMMENT    RUN 149C.                                              1215400200005 
ENDBIB               3          0                                 1215400200006 
NOCOMMON             0          0                                 1215400200007 
DATA                 2        243                                 1215400200008 
EN         DATA                                                   1215400200009 
EV         B                                                      1215400200010 
  19.3713   113.376                                               1215400200011 
  19.4745    47.3346                                              1215400200012 
  19.5785    38.1115                                              1215400200013 
  19.6833    45.8394                                              1215400200014 
  19.7890    31.1148                                              1215400200015 
  19.8955    31.1183                                              1215400200016 
  20.0029    97.7412                                              1215400200017 
  20.1112    60.0182                                              1215400200018 
  20.2203    40.5960                                              1215400200019 
  20.3304    15.4970                                              1215400200020 
  20.4413    16.4568                                              1215400200021 
  20.5532    46.0547                                              1215400200022 
  20.6660    27.2657                                              1215400200023 
  20.7797    39.7846                                              1215400200024 
  20.8943    33.5062                                              1215400200025 
  21.0099    49.9168                                              1215400200026 
  21.1265    88.7919                                              1215400200027 
  21.2440    34.4462                                              1215400200028 
  21.3625    12.4284                                              1215400200029 
  21.4820    60.2272                                              1215400200030 
  21.6025     1.3717                                              1215400200031 
  21.7241    49.0176                                              1215400200032 
  21.8466    63.9137                                              1215400200033 
  21.9702     5.8989                                              1215400200034 
  22.0949    19.6347                                              1215400200035 
  22.2206    44.5542                                              1215400200036 
  22.3474     7.6619                                              1215400200037 
  22.4753    72.2295                                              1215400200038 
  22.6043    53.6477                                              1215400200039 
  22.7344     2.2879                                              1215400200040 
  22.8656    12.7556                                              1215400200041 
  22.9979    14.5182                                              1215400200042 
  23.1315    65.4338                                              1215400200043 
  23.2661     2.5937                                              1215400200044 
  23.4020    33.3529                                              1215400200045 
  23.5391    70.2680                                              1215400200046 
  23.6773    81.0223                                              1215400200047 
  23.8168    15.2978                                              1215400200048 
  23.9575    96.4230                                              1215400200049 
  24.0995     5.0999                                              1215400200050 
  24.2427   132.114                                               1215400200051 
  24.3872    50.1571                                              1215400200052 
  24.5331    90.4113                                              1215400200053 
  24.6802    38.9503                                              1215400200054 
  24.8286    76.7496                                              1215400200055 
  24.9784   118.574                                               1215400200056 
  25.1296    26.3049                                              1215400200057 
  25.2821    41.4365                                              1215400200058 
  25.4360     7.7432                                              1215400200059 
  25.5914     9.8330                                              1215400200060 
  25.7481    60.9787                                              1215400200061 
  25.9063    15.0231                                              1215400200062 
  26.0660    17.7302                                              1215400200063 
  26.2272     8.4998                                              1215400200064 
  26.3898    18.5868                                              1215400200065 
  26.5540    19.4923                                              1215400200066 
  26.7197    67.3030                                              1215400200067 
  26.8869    52.4909                                              1215400200068 
  27.0558    10.1401                                              1215400200069 
  27.2262    24.6184                                              1215400200070 
  27.3983    23.1537                                              1215400200071 
  27.5719    28.5503                                              1215400200072 
  27.7473    62.7973                                              1215400200073 
  27.9243    10.9818                                              1215400200074 
  28.1030    18.4804                                              1215400200075 
  28.2834    24.4822                                              1215400200076 
  28.4656     3.0662                                              1215400200077 
  28.6496    15.0637                                              1215400200078 
  28.8353    74.7730                                              1215400200079 
  29.0228    38.9205                                              1215400200080 
  29.2122    33.5416                                              1215400200081 
  29.4035     0.0845                                              1215400200082 
  29.5966    65.1542                                              1215400200083 
  29.7916    86.6285                                              1215400200084 
  29.9886    56.3155                                              1215400200085 
  30.1875   130.763                                               1215400200086 
  30.3884   217.313                                               1215400200087 
  30.5914   491.246                                               1215400200088 
  30.7963   567.864                                               1215400200089 
  31.0034   345.6506                                              1215400200090 
  31.2125    84.0340                                              1215400200091 
  31.4238    31.6570                                              1215400200092 
  31.6372    31.6748                                              1215400200093 
  31.8527   106.637                                               1215400200094 
  32.0705    71.1331                                              1215400200095 
  32.2906    32.6965                                              1215400200096 
  32.5129    48.8862                                              1215400200097 
  32.7375    11.5653                                              1215400200098 
  32.9644    25.7542                                              1215400200099 
  33.1938    40.6910                                              1215400200100 
  33.4255    66.5443                                              1215400200101 
  33.6596    21.8094                                              1215400200102 
  33.8963    50.0841                                              1215400200103 
  34.1354    74.3264                                              1215400200104 
  34.3771    23.1286                                              1215400200105 
  34.6213    50.2037                                              1215400200106 
  34.8681    42.2726                                              1215400200107 
  35.1177    25.6271                                              1215400200108 
  35.3698    30.0143                                              1215400200109 
  35.6248    84.7558                                              1215400200110 
  35.8824    19.6677                                              1215400200111 
  36.1429    65.1714                                              1215400200112 
  36.4063    89.8675                                              1215400200113 
  36.6725    68.8993                                              1215400200114 
  36.9416   105.910                                               1215400200115 
  37.2138    34.9354                                              1215400200116 
  37.4889    70.7712                                              1215400200117 
  37.7671     2.2830                                              1215400200118 
  38.0485     2.2010                                              1215400200119 
  38.3329    40.0572                                              1215400200120 
  38.6206   122.649                                               1215400200121 
  38.9115    49.2729                                              1215400200122 
  39.2058    32.1567                                              1215400200123 
  39.5033    27.8707                                              1215400200124 
  39.8043    64.5626                                              1215400200125 
  40.1087    38.6527                                              1215400200126 
  40.4167   232.963                                               1215400200127 
  40.7282   203.723                                               1215400200128 
  41.0433   123.853                                               1215400200129 
  41.3621   112.947                                               1215400200130 
  41.6846   219.244                                               1215400200131 
  42.0109   202.679                                               1215400200132 
  42.3410    72.0211                                              1215400200133 
  42.6751   123.645                                               1215400200134 
  43.0131    55.9771                                              1215400200135 
  43.3551    37.2089                                              1215400200136 
  43.7013   108.392                                               1215400200137 
  44.0516    36.4898                                              1215400200138 
  44.4061    58.6349                                              1215400200139 
  44.7650    60.8314                                              1215400200140 
  45.1282    44.0609                                              1215400200141 
  45.4958    84.5716                                              1215400200142 
  45.8680    22.0615                                              1215400200143 
  46.2447    13.3807                                              1215400200144 
  46.6261    78.8301                                              1215400200145 
  47.0122    64.0588                                              1215400200146 
  47.4032    62.3951                                              1215400200147 
  47.7990    61.0672                                              1215400200148 
  48.1999    58.2803                                              1215400200149 
  48.6058    53.6859                                              1215400200150 
  49.0168    57.2631                                              1215400200151 
  49.4331    45.2159                                              1215400200152 
  49.8547    47.6435                                              1215400200153 
  50.2817    52.2638                                              1215400200154 
  50.7142    60.2471                                              1215400200155 
  51.1524   165.586                                               1215400200156 
  51.5962   467.121                                               1215400200157 
  52.0458   520.418                                               1215400200158 
  52.5014   279.709                                               1215400200159 
  52.9629   107.368                                               1215400200160 
  53.4306    37.6230                                              1215400200161 
  53.9045    28.8793                                              1215400200162 
  54.3847    25.4316                                              1215400200163 
  54.8714    53.3386                                              1215400200164 
  55.3646   107.799                                               1215400200165 
  55.8645   188.972                                               1215400200166 
  56.3712   312.964                                               1215400200167 
  56.8848   116.527                                               1215400200168 
  57.4055    68.1395                                              1215400200169 
  57.9334    50.3958                                              1215400200170 
  58.4685    51.1942                                              1215400200171 
  59.0112    91.5103                                              1215400200172 
  59.5614    31.7189                                              1215400200173 
  60.1193   113.939                                               1215400200174 
  60.6852    25.2699                                              1215400200175 
  61.2590    54.4102                                              1215400200176 
  61.8411    84.4444                                              1215400200177 
  62.4314    41.2812                                              1215400200178 
  63.0303    71.1414                                              1215400200179 
  63.6378    51.5340                                              1215400200180 
  64.2541    86.6636                                              1215400200181 
  64.8795    46.7972                                              1215400200182 
  65.5140    35.1721                                              1215400200183 
  66.1579    39.2471                                              1215400200184 
  66.8113    63.0646                                              1215400200185 
  67.4744    20.8755                                              1215400200186 
  68.1475    22.7975                                              1215400200187 
  68.8306    58.0648                                              1215400200188 
  69.5241    92.8810                                              1215400200189 
  70.2282    91.7027                                              1215400200190 
  70.9430   172.429                                               1215400200191 
  71.6687   337.417                                               1215400200192 
  72.4057   213.262                                               1215400200193 
  73.1541    92.6608                                              1215400200194 
  73.9141    69.0583                                              1215400200195 
  74.6860    41.4977                                              1215400200196 
  75.4701    57.0922                                              1215400200197 
  76.2666    27.2685                                              1215400200198 
  77.0758    29.8361                                              1215400200199 
  77.8980    15.4314                                              1215400200200 
  78.7333    75.4639                                              1215400200201 
  79.5822    41.7228                                              1215400200202 
  80.4449    38.0643                                              1215400200203 
  81.3217    63.4312                                              1215400200204 
  82.2129    74.9445                                              1215400200205 
  83.1188    42.3853                                              1215400200206 
  84.0397    72.3761                                              1215400200207 
  84.9761    28.8519                                              1215400200208 
  85.9282    37.3633                                              1215400200209 
  86.8964    92.2627                                              1215400200210 
  87.8811    89.9524                                              1215400200211 
  88.8826    79.4123                                              1215400200212 
  89.9013    92.4894                                              1215400200213 
  90.9376    49.8042                                              1215400200214 
  91.9919    60.8614                                              1215400200215 
  93.0647    38.8897                                              1215400200216 
  94.1564    98.6310                                              1215400200217 
  95.2673    74.8030                                              1215400200218 
  96.3981    58.0087                                              1215400200219 
  97.5491    40.7706                                              1215400200220 
  98.7209    91.4423                                              1215400200221 
  99.9139    11.9634                                              1215400200222 
 101.128     24.2641                                              1215400200223 
 102.365    104.447                                               1215400200224 
 103.625     39.7864                                              1215400200225 
 104.908     33.9280                                              1215400200226 
 106.216     62.5350                                              1215400200227 
 107.547     85.0179                                              1215400200228 
 108.905     68.8269                                              1215400200229 
 110.287     14.2113                                              1215400200230 
 111.697     27.9172                                              1215400200231 
