ENTRY            12706   19831102                             00001270600000001 
SUBENT        12706001   19831102                             00001270600100001 
BIB                 13         26                                 1270600100002 
INSTITUTE  (1USAKTY)                                              1270600100003 
REFERENCE  (J,PR/C,23,1938,8105)                                  1270600100004 
           (W,KLEPPINGER,8109)                                    1270600100005 
AUTHOR     (A.J.FILO,S.W.YATES,D.F.COOPE,J.L.WEIL,                1270600100006 
           M.T.MC ELLISTREM)                                      1270600100007 
TITLE      POSITIVE AND NEGATIVE PARITY LEVEL STRUCTURES OF PT-1941270600100008 
            FROM (N,N'GAMMA) REACTION SPECTROSCOPY                1270600100009 
FACILITY   (VDG) 6.5-MV PULSED PROTON BEAM                        1270600100010 
N-SOURCE   (P-T)                                                  1270600100011 
SAMPLE     42 GRAMS OF ENRICHED (97.4 PERCENT) PLATINUM POWDER IN 1270600100012 
            POLYETHYLENE CYLINDER.                                1270600100013 
DETECTOR   (GELI) COAXIAL GELI DETECTOR. SHIELDED FROM DIRECT     1270600100014 
            NEUTRON BEAM BY TUNGSTEN SHADOW BAR. SHIELDED FROM    1270600100015 
            BACKGROUND BY HOLLOW LEAD CYLINDER SURROUNDED BY      1270600100016 
            LI(2)CO(3) AND PARAFFIN.                              1270600100017 
           (LONGC) LONG COUNTER USED TO MEASURE NEUTRON FLUX.     1270600100018 
MONITOR    EU-152 AND CS-137 USED TO CALIBRATE DETECTOR.          1270600100019 
METHOD     (TOF) TIME OF FLIGHT USED FOR NEUTRON FLUX MEASUREMENT.1270600100020 
           SAMPLE SUSPENDED 6.3-CM FROM NEUTRON SOURCE.           1270600100021 
CORRECTION CORRECTIONS MADE FOR GAMMA ABSORPTION IN SAMPLE,       1270600100022 
            NEUTRON ATTENUATION, AND MULTIPLE SCATTERING.         1270600100023 
STATUS     (APRVD) APPROVED BY S.W.YATES, 82/2/11.                1270600100024 
            ABSOLUTE CROSS SECTION DATA NOT AVAILABLE.            1270600100025 
           (OUTDT) E.W.YATES, 83/10/28, WILL SEND UPDATED DATA.   1270600100026 
HISTORY    (820111C)                                              1270600100027 
           (831102A) STATUS CHANGE.                               1270600100028 
ENDBIB              26          0                                 1270600100029 
COMMON               1          3                                 1270600100030 
EN                                                                1270600100031 
MEV                                                               1270600100032 
 2.5                                                              1270600100033 
ENDCOMMON            3          0                                 1270600100034 
ENDSUBENT           33          0                                 1270600199999 
SUBENT        12706002   19820127                             00001270600200001 
BIB                  2          2                                 1270600200002 
REACTION   (78-PT-194(N,INL)78-PT-194,PAR,DA,G,REL)               1270600200003 
ERR-ANALYS RELATIVE ERROR IN YIELD.                               1270600200004 
ENDBIB               2          0                                 1270600200005 
NOCOMMON             0          0                                 1270600200006 
DATA                 4        456                                 1270600200007 
E          ANG        DATA       DATA-ERR                         1270600200008 
KEV        ADEG       ARB-UNITS  ARB-UNITS                        1270600200009 
 300.7       40.         35385.   0.0356                          1270600200010 
 300.7       50.         36907.   0.0280                          1270600200011 
 300.7       60.         35327.   0.0301                          1270600200012 
 300.7       70.         36365.   0.0236                          1270600200013 
 300.7       80.         38190.   0.0238                          1270600200014 
 300.7       90.         37656.   0.0208                          1270600200015 
 300.7      100.         36982.   0.0276                          1270600200016 
 300.7      110.         36949.   0.0269                          1270600200017 
 300.7      120.         34836.   0.0336                          1270600200018 
 300.7      130.         38375.   0.0278                          1270600200019 
 300.7      140.         39539.   0.0238                          1270600200020 
 300.7      150.         37612.   0.0314                          1270600200021 
 328.5       40.        352830.   0.0230                          1270600200022 
 328.5       50.        349510.   0.0202                          1270600200023 
 328.5       60.        346745.   0.0214                          1270600200024 
 328.5       70.        335331.   0.0195                          1270600200025 
 328.5       80.        329548.   0.0186                          1270600200026 
 328.5       90.        325491.   0.0140                          1270600200027 
 328.5      100.        330688.   0.0199                          1270600200028 
 328.5      110.        338684.   0.0200                          1270600200029 
 328.5      120.        340885.   0.0238                          1270600200030 
 328.5      130.        364791.   0.0233                          1270600200031 
 328.5      140.        378886.   0.0205                          1270600200032 
 328.5      150.        370971.   0.0219                          1270600200033 
 409.7       40.          1783.   0.1289                          1270600200034 
 409.7       50.          1408.   0.1201                          1270600200035 
 409.7       60.          1327.   0.1153                          1270600200036 
 409.7       70.          1394.   0.1306                          1270600200037 
 409.7       80.          1160.   0.1328                          1270600200038 
 409.7       90.          1591.   0.0700                          1270600200039 
 409.7      100.          1006.   0.1615                          1270600200040 
 409.7      110.          1190.   0.1503                          1270600200041 
 409.7      120.          1658.   0.1078                          1270600200042 
 409.7      130.          1622.   0.1011                          1270600200043 
 409.7      140.          2214.   0.0835                          1270600200044 
 409.7      150.          1986.   0.1168                          1270600200045 
 418.3       40.          1473.   0.1351                          1270600200046 
 418.3       50.          1766.   0.0919                          1270600200047 
 418.3       60.          2243.   0.0635                          1270600200048 
 418.3       70.          1733.   0.1000                          1270600200049 
 418.3       80.          1382.   0.1101                          1270600200050 
 418.3       90.          1450.   0.0747                          1270600200051 
 418.3      100.          1848.   0.0977                          1270600200052 
 418.3      110.          1511.   0.1206                          1270600200053 
 418.3      120.          1282.   0.1632                          1270600200054 
 418.3      130.          2075.   0.0878                          1270600200055 
 418.3      140.          1628.   0.1076                          1270600200056 
 418.3      150.          1743.   0.1271                          1270600200057 
 455.9       40.          4511.   0.0564                          1270600200058 
 455.9       50.          5407.   0.0354                          1270600200059 
 455.9       60.          5844.   0.0265                          1270600200060 
 455.9       70.          5921.   0.0109                          1270600200061 
 455.9       80.          6251.   0.0058                          1270600200062 
 455.9       90.          5962.   0.0218                          1270600200063 
 455.9      100.          6169.   0.0102                          1270600200064 
 455.9      110.          6258.   0.0289                          1270600200065 
 455.9      120.          5978.   0.0370                          1270600200066 
 455.9      130.          5534.   0.0313                          1270600200067 
 455.9      140.          4620.   0.0354                          1270600200068 
 455.9      150.          4630.   0.0387                          1270600200069 
 482.9       40.         56293.   0.0287                          1270600200070 
 482.9       50.         53211.   0.0072                          1270600200071 
 482.9       60.         49855.   0.0198                          1270600200072 
 482.9       70.         46521.   0.0197                          1270600200073 
 482.9       80.         43516.   0.0189                          1270600200074 
 482.9       90.         43152.   0.0121                          1270600200075 
 482.9      100.         44372.   0.0174                          1270600200076 
 482.9      110.         45840.   0.0201                          1270600200077 
 482.9      120.         47861.   0.0224                          1270600200078 
 482.9      130.         53412.   0.0277                          1270600200079 
 482.9      140.         56760.   0.0100                          1270600200080 
 482.9      150.         56972.   0.0174                          1270600200081 
 499.7       40.          7417.   0.1238                          1270600200082 
 499.7       50.          8175.   0.0336                          1270600200083 
 499.7       60.          8057.   0.0717                          1270600200084 
 499.7       70.          8291.   0.0679                          1270600200085 
 499.7       80.          8632.   0.0570                          1270600200086 
 499.7       90.          8751.   0.0359                          1270600200087 
 499.7      100.          8772.   0.0536                          1270600200088 
 499.7      110.          8582.   0.0632                          1270600200089 
 499.7      120.          7353.   0.1287                          1270600200090 
 499.7      130.          8286.   0.1002                          1270600200091 
 499.7      140.          8909.   0.0343                          1270600200092 
 499.7      150.          9118.   0.0613                          1270600200093 
 528.9       40.          2002.   0.0620                          1270600200094 
 528.9       50.          1995.   0.0609                          1270600200095 
 528.9       60.          2291.   0.0761                          1270600200096 
 528.9       70.          1739.   0.0576                          1270600200097 
 528.9       80.          2048.   0.0429                          1270600200098 
 528.9       90.          1935.   0.0414                          1270600200099 
 528.9      100.          1680.   0.0680                          1270600200100 
 528.9      110.          1890.   0.0415                          1270600200101 
 528.9      120.          1895.   0.0776                          1270600200102 
 528.9      130.          2394.   0.0300                          1270600200103 
 528.9      140.          2467.   0.0517                          1270600200104 
 528.9      150.          2727.   0.0428                          1270600200105 
 562.5       40.         13497.   0.0218                          1270600200106 
 562.5       50.         14660.   0.0202                          1270600200107 
 562.5       60.         14872.   0.0165                          1270600200108 
 562.5       70.         16302.   0.0184                          1270600200109 
 562.5       80.         16825.   0.0158                          1270600200110 
 562.5       90.         16653.   0.0059                          1270600200111 
 562.5      100.         17375.   0.0140                          1270600200112 
 562.5      110.         15693.   0.0194                          1270600200113 
 562.5      120.         14331.   0.0183                          1270600200114 
 562.5      130.         15162.   0.0186                          1270600200115 
 562.5      140.         13512.   0.0163                          1270600200116 
 562.5      150.         12726.   0.0130                          1270600200117 
 575.9       40.          1692.   0.0865                          1270600200118 
 575.9       50.          1597.   0.0965                          1270600200119 
 575.9       60.          1430.   0.1132                          1270600200120 
 575.9       70.          1481.   0.0970                          1270600200121 
 575.9       80.          1680.   0.0372                          1270600200122 
 575.9       90.          1593.   0.0431                          1270600200123 
 575.9      100.          1484.   0.0595                          1270600200124 
 575.9      110.          1590.   0.0568                          1270600200125 
 575.9      120.          1671.   0.0246                          1270600200126 
 575.9      130.          1892.   0.0754                          1270600200127 
 575.9      140.          2439.   0.0323                          1270600200128 
 575.9      150.          2099.   0.0482                          1270600200129 
 594.2       40.          9025.   0.0529                          1270600200130 
 594.2       50.         10205.   0.0544                          1270600200131 
 594.2       60.          9903.   0.0569                          1270600200132 
 594.2       70.         11119.   0.0479                          1270600200133 
 594.2       80.         11270.   0.0488                          1270600200134 
 594.2       90.         11046.   0.0249                          1270600200135 
 594.2      100.         11917.   0.0471                          1270600200136 
 594.2      110.         11211.   0.0504                          1270600200137 
 594.2      120.         12367.   0.0446                          1270600200138 
 594.2      130.         10851.   0.0461                          1270600200139 
 594.2      140.         12162.   0.0388                          1270600200140 
 594.2      150.         13435.   0.0264                          1270600200141 
 607.7       40.          7547.   0.0420                          1270600200142 
 607.7       50.          7235.   0.0307                          1270600200143 
 607.7       60.          6973.   0.0328                          1270600200144 
 607.7       70.          6783.   0.0267                          1270600200145 
 607.7       80.          6545.   0.0269                          1270600200146 
 607.7       90.          6466.   0.0239                          1270600200147 
 607.7      100.          6547.   0.0245                          1270600200148 
 607.7      110.          7002.   0.0197                          1270600200149 
 607.7      120.          7766.   0.0344                          1270600200150 
 607.7      130.          7739.   0.0319                          1270600200151 
 607.7      140.          8529.   0.0247                          1270600200152 
 607.7      150.          8443.   0.0236                          1270600200153 
 645.        40.          1316.   0.0419                          1270600200154 
 645.        50.          1411.   0.0308                          1270600200155 
 645.        60.          1340.   0.0455                          1270600200156 
 645.        70.          1093.   0.0157                          1270600200157 
 645.        80.          1404.   0.0241                          1270600200158 
 645.        90.          1381.   0.0228                          1270600200159 
 645.       100.          1203.   0.0681                          1270600200160 
 645.       110.           992.   0.0695                          1270600200161 
 645.       120.          1399.   0.0837                          1270600200162 
 645.       130.          1137.   0.0706                          1270600200163 
 645.       140.          1419.   0.0469                          1270600200164 
 645.       150.          1318.   0.0634                          1270600200165 
 810.        40.           918.   0.0793                          1270600200166 
 810.        50.           727.   0.1012                          1270600200167 
 810.        60.           746.   0.1119                          1270600200168 
 810.        70.           734.   0.1615                          1270600200169 
 810.        80.           826.   0.1584                          1270600200170 
 810.        90.           784.   0.0525                          1270600200171 
 810.       100.           875.   0.1085                          1270600200172 
 810.       110.           847.   0.0764                          1270600200173 
 810.       120.           852.   0.1227                          1270600200174 
 810.       130.           463.   0.1669                          1270600200175 
 810.       140.           493.   0.1478                          1270600200176 
 810.       150.           609.   0.1520                          1270600200177 
 816.        40.          1041.   0.0710                          1270600200178 
 816.        50.           989.   0.0694                          1270600200179 
 816.        60.           860.   0.0882                          1270600200180 
 816.        70.           750.   0.0888                          1270600200181 
 816.        80.           850.   0.0577                          1270600200182 
 816.        90.           832.   0.0518                          1270600200183 
 816.       100.           679.   0.0912                          1270600200184 
 816.       110.           943.   0.0695                          1270600200185 
 816.       120.           887.   0.1067                          1270600200186 
 816.       130.           711.   0.0675                          1270600200187 
 816.       140.           721.   0.1141                          1270600200188 
 816.       150.          1066.   0.0861                          1270600200189 
 895.1       40.           799.   0.1169                          1270600200190 
 895.1       50.           737.   0.0750                          1270600200191 
 895.1       60.           881.   0.0754                          1270600200192 
 895.1       70.          1000.   0.0773                          1270600200193 
 895.1       80.           744.   0.0943                          1270600200194 
 895.1       90.           714.   0.0921                          1270600200195 
 895.1      100.           829.   0.1012                          1270600200196 
 895.1      110.           791.   0.0400                          1270600200197 
 895.1      120.           767.   0.1714                          1270600200198 
 895.1      130.           843.   0.0935                          1270600200199 
 895.1      140.           838.   0.0826                          1270600200200 
 895.1      150.           952.   0.0991                          1270600200201 
 925.8       40.           454.   0.2387                          1270600200202 
 925.8       50.           363.   0.2857                          1270600200203 
 925.8       60.           394.   0.2326                          1270600200204 
 925.8       70.           289.   0.2175                          1270600200205 
 925.8       80.           403.   0.1810                          1270600200206 
 925.8       90.           562.   0.0723                          1270600200207 
 925.8      100.           430.   0.0780                          1270600200208 
 925.8      110.           243.   0.2068                          1270600200209 
 925.8      120.           594.   0.1102                          1270600200210 
