ENTRY            13135   20220822                             150013135  0    1 
SUBENT        13135001   20220822                             150013135  1    1 
BIB                 11         19                                 13135  1    2 
INSTITUTE  (1USAANL)                                              13135  1    3 
REFERENCE  (J,NP/A,493,267,1989)                                  13135  1    4 
           (R,ANL-NDM-106,1988)                                   13135  1    5 
AUTHOR     (R.D.Lawson,P.T.Guenther,A.B.Smith)                    13135  1    6 
TITLE      Neutron scattering and the Fermi surface anomaly in    13135  1    7 
           51V.                                                   13135  1    8 
FACILITY   (DYNAM,1USAANL) Tandem dynamitron                      13135  1    9 
INC-SOURCE (D-D)                                                  13135  1   10 
METHOD     (TOF)                                                  13135  1   11 
SAMPLE     Chemically pure V metal, solid cylinders, 2 cm diam.,  13135  1   12 
            2 cm long                                             13135  1   13 
MONITOR    (1-H-1(N,EL)1-H-1,,SIG)                                13135  1   14 
STATUS     (TABLE) Data received via electronic mail 88/7/11      13135  1   15 
           (APRVD) A.B.Smith, 88/12/21.                           13135  1   16 
HISTORY    (19881115C)                                            13135  1   17 
           (19891106A) Reference update.                          13135  1   18 
           (20220702A) OS. Data format in sub.3 corrected,        13135  1   19 
            updated ERR-ANALYS, added SAMPLE, converted to lower  13135  1   20 
            case.                                                 13135  1   21 
ENDBIB              19          0                                 13135  1   22 
NOCOMMON             0          0                                 13135  1   23 
ENDSUBENT           22          0                                 13135  199999 
SUBENT        13135002   20220822                             150013135  2    1 
BIB                  3         12                                 13135  2    2 
REACTION   (23-V-0(N,EL)23-V-0,,DA)                               13135  2    3 
ERR-ANALYS (ERR-S,1.) Statistical uncertainties varied from < 1%  13135  2    4 
            in regions of large cross sections, to > 10% at the   13135  2    5 
            minima of the distributions                           13135  2    6 
           (ERR-SYS,,3.) Systematic uncertainties estimated <= 3%,13135  2    7 
            arising primarily from absolute calibration of        13135  2    8 
            detectors                                             13135  2    9 
           (ERR-1,1.) Uncertainty due to correction procedures    13135  2   10 
            generally <= 1%, except at minima of distributions    13135  2   11 
            where they may be considerably larger                 13135  2   12 
           (ERR-T) Total uncertainty                              13135  2   13 
COMMENT    Multiple measurements at same angle                    13135  2   14 
ENDBIB              12          0                                 13135  2   15 
NOCOMMON             0          0                                 13135  2   16 
DATA                 4        520                                 13135  2   17 
EN         ANG        DATA       ERR-T                            13135  2   18 
MEV        ADEG       B/SR       PER-CENT                         13135  2   19 
  4.5000    19.400001   1.570000  3.000000                        13135  2   20 
  4.5000    24.299997   1.320000  3.000000                        13135  2   21 
  4.5000    26.300001   1.260000  3.000000                        13135  2   22 
  4.5000    27.200001   1.170000  3.000000                        13135  2   23 
  4.5000    29.200000   1.100000  3.000000                        13135  2   24 
  4.5000    34.199995    .848000  3.000000                        13135  2   25 
  4.5000    37.199998    .707000  3.000000                        13135  2   26 
  4.5000    42.100000    .487000  3.000000                        13135  2   27 
  4.5000    45.100003    .383000  3.000000                        13135  2   28 
  4.5000    50.100005    .247000  3.000000                        13135  2   29 
  4.5000    53.099990    .183000  3.280000                        13135  2   30 
  4.5000    57.599998    .115000  5.220001                        13135  2   31 
  4.5000    60.599995    .079500  7.550000                        13135  2   32 
  4.5000    65.600002    .046000 13.000000                        13135  2   33 
  4.5000    68.499994    .037300 16.099998                        13135  2   34 
  4.5000    73.000002    .031000 19.400001                        13135  2   35 
  4.5000    75.999999    .032000 18.799999                        13135  2   36 
  4.5000    80.999994    .034800 17.199999                        13135  2   37 
  4.5000    84.000003    .042500 14.100000                        13135  2   38 
  4.5000    88.499999    .049100 12.200001                        13135  2   39 
  4.5000    91.499996    .057700 10.400000                        13135  2   40 
  4.5000    96.500003    .068300  8.780000                        13135  2   41 
  4.5000    99.500000    .072100  8.320000                        13135  2   42 
  4.5000   104.000002    .076300  7.860000                        13135  2   43 
  4.5000   106.999993    .076800  7.810000                        13135  2   44 
  4.5000   111.999989    .075200  7.980000                        13135  2   45 
  4.5000   115.000010    .072300  8.299999                        13135  2   46 
  4.5000   119.000000    .065300  9.190000                        13135  2   47 
  4.5000   122.000009    .064300  9.330000                        13135  2   48 
  4.5000   127.000004    .053300 11.299999                        13135  2   49 
  4.5000   129.999995    .048700 12.300000                        13135  2   50 
  4.5000   134.999990    .042700 14.100000                        13135  2   51 
  4.5000   138.000011    .037900 15.799999                        13135  2   52 
  4.5000   143.000007    .032800 18.300000                        13135  2   53 
  4.5000   145.000011    .031600 19.000000                        13135  2   54 
  4.5000   145.999998    .030500 19.700000                        13135  2   55 
  4.5000   148.000002    .030600 19.599998                        13135  2   56 
  4.5000   152.999997    .032700 18.300000                        13135  2   57 
  4.5000   155.999988    .033300 18.000001                        13135  2   58 
  5.0000    16.400000   1.720000  3.040000                        13135  2   59 
  5.0000    19.400001   1.620000  3.060000                        13135  2   60 
  5.0000    24.299997   1.340000  3.110000                        13135  2   61 
  5.0000    26.300001   1.240000  3.130000                        13135  2   62 
  5.0000    27.200001   1.130000  3.140000                        13135  2   63 
  5.0000    29.200000   1.090000  3.170000                        13135  2   64 
  5.0000    34.199995    .812000  3.260000                        13135  2   65 
  5.0000    37.199998    .648000  3.330000                        13135  2   66 
  5.0000    42.100000    .439000  3.450000                        13135  2   67 
  5.0000    45.100003    .340000  3.540000                        13135  2   68 
  5.0000    50.100005    .213000  3.700000                        13135  2   69 
  5.0000    53.099990    .141000  3.800000                        13135  2   70 
  5.0000    57.599998    .087200  4.590000                        13135  2   71 
  5.0000    60.599995    .059400  6.730000                        13135  2   72 
  5.0000    65.600002    .032300 12.399999                        13135  2   73 
  5.0000    68.499994    .023200 17.199999                        13135  2   74 
  5.0000    73.000002    .020400 19.599998                        13135  2   75 
  5.0000    75.999999    .021400 18.700001                        13135  2   76 
  5.0000    80.999994    .027400 14.600000                        13135  2   77 
  5.0000    84.000003    .034500 11.600001                        13135  2   78 
  5.0000    88.499999    .043400  9.219999                        13135  2   79 
  5.0000    91.499996    .051900  7.710000                        13135  2   80 
  5.0000    96.500003    .058200  6.870000                        13135  2   81 
  5.0000    99.500000    .062300  6.420000                        13135  2   82 
  5.0000   104.000002    .065400  6.120000                        13135  2   83 
  5.0000   106.999993    .066100  6.050000                        13135  2   84 
  5.0000   111.999989    .064100  6.240000                        13135  2   85 
  5.0000   115.000010    .059000  6.780000                        13135  2   86 
  5.0000   119.000000    .051700  7.739999                        13135  2   87 
  5.0000   122.000009    .049500  8.080000                        13135  2   88 
  5.0000   127.000004    .042500  9.410000                        13135  2   89 
  5.0000   129.999995    .036400 10.999998                        13135  2   90 
  5.0000   134.999990    .030900 12.900001                        13135  2   91 
  5.0000   138.000011    .028700 13.900000                        13135  2   92 
  5.0000   143.000007    .024900 16.099998                        13135  2   93 
  5.0000   145.000011    .023800 16.799998                        13135  2   94 
  5.0000   145.999998    .023600 16.900000                        13135  2   95 
  5.0000   148.000002    .023900 16.700000                        13135  2   96 
  5.0000   152.999997    .025300 15.799999                        13135  2   97 
  5.0000   155.999988    .026100 15.300000                        13135  2   98 
  5.5000    17.800000   1.700000  3.000000                        13135  2   99 
  5.5000    20.700002   1.560000  3.000000                        13135  2  100 
  5.5000    25.599998   1.250000  3.000000                        13135  2  101 
  5.5000    27.599996   1.140000  3.000000                        13135  2  102 
  5.5000    28.599995   1.060000  3.000000                        13135  2  103 
  5.5000    30.900002    .962000  3.000000                        13135  2  104 
  5.5000    35.500002    .692000  3.000000                        13135  2  105 
  5.5000    38.499999    .536000  3.000000                        13135  2  106 
  5.5000    43.500006    .354000  3.000000                        13135  2  107 
  5.5000    46.499997    .271000  3.000000                        13135  2  108 
  5.5000    51.499999    .156000  3.000000                        13135  2  109 
  5.5000    54.499996    .106000  3.000000                        13135  2  110 
  5.5000    58.899999    .059800  3.340000                        13135  2  111 
  5.5000    61.900008    .036900  5.420001                        13135  2  112 
  5.5000    66.899991    .018800 10.599999                        13135  2  113 
  5.5000    69.899988    .013500 14.800000                        13135  2  114 
  5.5000    74.399996    .013500 14.800000                        13135  2  115 
  5.5000    77.399993    .017600 11.399999                        13135  2  116 
  5.5000    82.399988    .024400  8.200001                        13135  2  117 
  5.5000    85.399997    .031900  6.270001                        13135  2  118 
  5.5000    89.899993    .037300  5.360000                        13135  2  119 
  5.5000    92.899990    .043500  4.600000                        13135  2  120 
  5.5000    97.899997    .050900  3.930000                        13135  2  121 
  5.5000   100.999993    .050200  3.980000                        13135  2  122 
  5.5000   104.999989    .051700  3.870000                        13135  2  123 
  5.5000   107.999992    .054100  3.700000                        13135  2  124 
  5.5000   113.000005    .049900  4.010000                        13135  2  125 
  5.5000   116.000009    .046500  4.300000                        13135  2  126 
  5.5000   121.000004    .041800  4.780000                        13135  2  127 
  5.5000   123.999995    .037400  5.350001                        13135  2  128 
  5.5000   129.000008    .031800  6.289999                        13135  2  129 
  5.5000   131.999999    .027600  7.250000                        13135  2  130 
  5.5000   135.999978    .025700  7.780000                        13135  2  131 
  5.5000   138.999999    .022400  8.930000                        13135  2  132 
  5.5000   143.999994    .023000  8.700001                        13135  2  133 
  5.5000   145.999998    .022900  8.729999                        13135  2  134 
  5.5000   147.000015    .023000  8.700001                        13135  2  135 
  5.5000   148.999989    .021700  9.219999                        13135  2  136 
  5.5000   153.999984    .025400  7.869999                        13135  2  137 
  5.5000   157.000005    .026400  7.580000                        13135  2  138 
  5.9000    17.300001   1.860000  9.059999                        13135  2  139 
  5.9000    20.299998   1.650000  8.090000                        13135  2  140 
  5.9000    25.199997   1.450000  8.160000                        13135  2  141 
  5.9000    27.200001   1.210000  7.190000                        13135  2  142 
  5.9000    28.200001   1.080000  6.210001                        13135  2  143 
  5.9000    30.100000   1.020000  5.250000                        13135  2  144 
  5.9000    35.099995    .769000  3.360000                        13135  2  145 
  5.9000    38.099998    .545000  3.430000                        13135  2  146 
  5.9000    43.099993    .382000  3.550000                        13135  2  147 
  5.9000    46.000004    .280000  3.620000                        13135  2  148 
  5.9000    50.999999    .167000  3.740000                        13135  2  149 
  5.9000    53.999996    .094600  3.840000                        13135  2  150 
  5.9000    58.500004    .069000  4.030000                        13135  2  151 
  5.9000    61.500001    .042900  4.660000                        13135  2  152 
  5.9000    66.499996    .022800  8.770001                        13135  2  153 
  5.9000    69.500005    .014600 13.700002                        13135  2  154 
  5.9000    74.000001    .012300 16.299999                        13135  2  155 
  5.9000    76.899993    .013900 14.399999                        13135  2  156 
  5.9000    81.899989    .021500  9.299999                        13135  2  157 
  5.9000    84.899998    .025600  7.810000                        13135  2  158 
  5.9000    89.399993    .033300  6.010001                        13135  2  159 
  5.9000    92.399991    .035600  5.620000                        13135  2  160 
  5.9000    97.399998    .045900  4.360000                        13135  2  161 
  5.9000    99.999994    .044700  4.470000                        13135  2  162 
  5.9000   104.999989    .047100  4.250000                        13135  2  163 
  5.9000   107.999992    .047800  4.180000                        13135  2  164 
  5.9000   113.000005    .047600  4.200000                        13135  2  165 
  5.9000   116.000009    .043800  4.570000                        13135  2  166 
  5.9000   120.000005    .040000  5.000000                        13135  2  167 
  5.9000   122.999996    .037100  5.390000                        13135  2  168 
  5.9000   127.999991    .032500  6.150000                        13135  2  169 
  5.9000   130.999982    .027000  7.409999                        13135  2  170 
  5.9000   135.999978    .021000  9.520000                        13135  2  171 
  5.9000   138.999999    .019100 10.499999                        13135  2  172 
  5.9000   143.999994    .019300 10.400000                        13135  2  173 
  5.9000   145.999998    .017400 11.500001                        13135  2  174 
  5.9000   147.000015    .019800 10.099999                        13135  2  175 
  5.9000   148.999989    .019100 10.499999                        13135  2  176 
  5.9000   153.999984    .022200  9.010000                        13135  2  177 
  5.9000   157.000005    .022300  8.970000                        13135  2  178 
  6.5000    17.300001   1.950000  3.110000                        13135  2  179 
  6.5000    20.199999   1.740000  3.160000                        13135  2  180 
  6.5000    25.199997   1.450000  3.270000                        13135  2  181 
  6.5000    27.100003   1.240000  3.320000                        13135  2  182 
  6.5000    28.100002   1.190000  3.350000                        13135  2  183 
  6.5000    30.100000   1.010000  3.420000                        13135  2  184 
  6.5000    35.099995    .752000  3.630000                        13135  2  185 
  6.5000    38.099998    .570000  3.770000                        13135  2  186 
  6.5000    43.000001    .335000  4.040000                        13135  2  187 
  6.5000    46.000004    .235000  4.210000                        13135  2  188 
  6.5000    50.999999    .136000  4.470000                        13135  2  189 
  6.5000    53.999996    .085500  4.570000                        13135  2  190 
  6.5000    58.500004    .051400  4.600000                        13135  2  191 
  6.5000    61.500001    .030200  4.740000                        13135  2  192 
  6.5000    66.499996    .015000  7.279999                        13135  2  193 
  6.5000    69.399989    .012000  8.620001                        13135  2  194 
  6.5000    73.899996    .008800 11.399999                        13135  2  195 
  6.5000    76.899993    .011600  8.690001                        13135  2  196 
  6.5000    81.899989    .016100  6.520001                        13135  2  197 
  6.5000    84.899998    .018500  5.740000                        13135  2  198 
  6.5000    89.399993    .023400  4.529999                        13135  2  199 
  6.5000    92.399991    .029100  3.640000                        13135  2  200 
  6.5000    97.399998    .034500  3.100000                        13135  2  201 
  6.5000   100.999993    .037500  3.040000                        13135  2  202 
  6.5000   104.999989    .040700  3.020000                        13135  2  203 
  6.5000   107.999992    .041700  3.000000                        13135  2  204 
  6.5000   113.000005    .042500  3.000000                        13135  2  205 
  6.5000   116.000009    .040400  3.010000                        13135  2  206 
  6.5000   120.000005    .036400  3.050000                        13135  2  207 
  6.5000   122.999996    .034300  3.100000                        13135  2  208 
  6.5000   127.999991    .030200  3.470000                        13135  2  209 
  6.5000   130.999982    .025000  4.160000                        13135  2  210 
  6.5000   135.999978    .019400  5.250000                        13135  2  211 
  6.5000   138.999999    .018100  5.569999                        13135  2  212 
  6.5000   143.999994    .016700  5.990000                        13135  2  213 
  6.5000   145.999998    .015900  6.300000                        13135  2  214 
  6.5000   147.000015    .016100  6.229999                        13135  2  215 
  6.5000   148.999989    .018300  5.510000                        13135  2  216 
  6.5000   153.999984    .022100  4.680001                        13135  2  217 
  6.5000   157.000005    .025100  4.200000                        13135  2  218 
  7.1400    17.800000   1.820000  9.100001                        13135  2  219 
  7.1400    20.700002   1.540000  8.139999                        13135  2  220 
  7.1400    25.599998   1.240000  7.229999                        13135  2  221 
