ENTRY            13778   20030827                             00001377800000001 
SUBENT        13778001   20030827                             00001377800100001 
BIB                  9         14                                 1377800100002 
INSTITUTE  (1USAANL,1USAUAZ)                                      1377800100003 
REFERENCE  (J,ANE,29,1241,200206)                                 1377800100004 
           (R,ANL-NDM-153,200106)                                 1377800100005 
AUTHOR     (A.B.Smith)                                            1377800100006 
TITLE      The Interaction of fast neutrons with hafnium          1377800100007 
FACILITY   (DYNAM,1USAANL)                                        1377800100008 
METHOD     (TOF)                                                  1377800100009 
ERR-ANALYS (DATA-ERR) Uncertainties are best estimate of total    1377800100010 
            error, combining systematic and statistical           1377800100011 
            uncertainties.                                        1377800100012 
STATUS     Data received by email from A. Smith, 20 November 2001.1377800100013 
           (APRVD) Approved by A. Smith, 26 November 2001.        1377800100014 
HISTORY    (20011120C) VM                                         1377800100015 
           (20030827A) Reference updated.                         1377800100016 
ENDBIB              14          0                                 1377800100017 
NOCOMMON             0          0                                 1377800100018 
ENDSUBENT           17          0                                 1377800199999 
SUBENT        13778002   20011126                             00001377800200001 
BIB                  4          4                                 1377800200002 
REACTION   (72-HF-0(N,TOT),,SIG)                                  1377800200003 
SAMPLE     Metallic hafnium; chemical purity > 98%.               1377800200004 
DETECTOR   (SCIN) Liquid scintillator.                            1377800200005 
CORRECTION Corrected for inscattering (negligible) and dead time. 1377800200006 
ENDBIB               4          0                                 1377800200007 
NOCOMMON             0          0                                 1377800200008 
DATA                 3        138                                 1377800200009 
EN         DATA       DATA-ERR                                    1377800200010 
MEV        B          B                                           1377800200011 
 0.7498E+00 0.7538E+01 0.6882E-01                                 1377800200012 
 0.8008E+00 0.7458E+01 0.7134E-01                                 1377800200013 
 0.8515E+00 0.7526E+01 0.7237E-01                                 1377800200014 
 0.9020E+00 0.7396E+01 0.6884E-01                                 1377800200015 
 0.9584E+00 0.7395E+01 0.7937E-01                                 1377800200016 
 0.1008E+01 0.7437E+01 0.7752E-01                                 1377800200017 
 0.1058E+01 0.7369E+01 0.7888E-01                                 1377800200018 
 0.1108E+01 0.7350E+01 0.7763E-01                                 1377800200019 
 0.1163E+01 0.7361E+01 0.7783E-01                                 1377800200020 
 0.1163E+01 0.7275E+01 0.7523E-01                                 1377800200021 
 0.1212E+01 0.7242E+01 0.7699E-01                                 1377800200022 
 0.1212E+01 0.7388E+01 0.7384E-01                                 1377800200023 
 0.1261E+01 0.7329E+01 0.7874E-01                                 1377800200024 
 0.1261E+01 0.7408E+01 0.7431E-01                                 1377800200025 
 0.1315E+01 0.7487E+01 0.7818E-01                                 1377800200026 
 0.1315E+01 0.7522E+01 0.7627E-01                                 1377800200027 
 0.1364E+01 0.7336E+01 0.7959E-01                                 1377800200028 
 0.1364E+01 0.7365E+01 0.7477E-01                                 1377800200029 
 0.1418E+01 0.7426E+01 0.8029E-01                                 1377800200030 
 0.1418E+01 0.7328E+01 0.7369E-01                                 1377800200031 
 0.1466E+01 0.7578E+01 0.7990E-01                                 1377800200032 
 0.1466E+01 0.7372E+01 0.7426E-01                                 1377800200033 
 0.1519E+01 0.7129E+01 0.7865E-01                                 1377800200034 
 0.1567E+01 0.7317E+01 0.8060E-01                                 1377800200035 
 0.1620E+01 0.7199E+01 0.8038E-01                                 1377800200036 
 0.1620E+01 0.7227E+01 0.8675E-01                                 1377800200037 
 0.1667E+01 0.7260E+01 0.8339E-01                                 1377800200038 
 0.1667E+01 0.7288E+01 0.8889E-01                                 1377800200039 
 0.1719E+01 0.7256E+01 0.8559E-01                                 1377800200040 
 0.1719E+01 0.7377E+01 0.8880E-01                                 1377800200041 
 0.1766E+01 0.7270E+01 0.9272E-01                                 1377800200042 
 0.1772E+01 0.7440E+01 0.8442E-01                                 1377800200043 
 0.1818E+01 0.7331E+01 0.9247E-01                                 1377800200044 
 0.1824E+01 0.7445E+01 0.8431E-01                                 1377800200045 
 0.1870E+01 0.7393E+01 0.8365E-01                                 1377800200046 
 0.1870E+01 0.7547E+01 0.9211E-01                                 1377800200047 
 0.1916E+01 0.7292E+01 0.8339E-01                                 1377800200048 
 0.1922E+01 0.7202E+01 0.7991E-01                                 1377800200049 
 0.1967E+01 0.7482E+01 0.9405E-01                                 1377800200050 
 0.1973E+01 0.7174E+01 0.7911E-01                                 1377800200051 
 0.2018E+01 0.7292E+01 0.9328E-01                                 1377800200052 
 0.2024E+01 0.7066E+01 0.8548E-01                                 1377800200053 
 0.2069E+01 0.7357E+01 0.9547E-01                                 1377800200054 
 0.2075E+01 0.7093E+01 0.8748E-01                                 1377800200055 
 0.2120E+01 0.7498E+01 0.9481E-01                                 1377800200056 
 0.2126E+01 0.7487E+01 0.8900E-01                                 1377800200057 
 0.2171E+01 0.7276E+01 0.9952E-01                                 1377800200058 
 0.2204E+01 0.7598E+01 0.9159E-01                                 1377800200059 
 0.2221E+01 0.7447E+01 0.1002E+00                                 1377800200060 
 0.2227E+01 0.7533E+01 0.1052E+00                                 1377800200061 
 0.2271E+01 0.7347E+01 0.1004E+00                                 1377800200062 
 0.2277E+01 0.7409E+01 0.1019E+00                                 1377800200063 
 0.2321E+01 0.7402E+01 0.1029E+00                                 1377800200064 
 0.2321E+01 0.7317E+01 0.1039E+00                                 1377800200065 
 0.2371E+01 0.7186E+01 0.1029E+00                                 1377800200066 
 0.2377E+01 0.7037E+01 0.1033E+00                                 1377800200067 
 0.2421E+01 0.7441E+01 0.1060E+00                                 1377800200068 
 0.2426E+01 0.7203E+01 0.1027E+00                                 1377800200069 
 0.2470E+01 0.7093E+01 0.1060E+00                                 1377800200070 
 0.2475E+01 0.6945E+01 0.1064E+00                                 1377800200071 
 0.2519E+01 0.7261E+01 0.1023E+00                                 1377800200072 
 0.2525E+01 0.7387E+01 0.1077E+00                                 1377800200073 
 0.2573E+01 0.7081E+01 0.1087E+00                                 1377800200074 
 0.2617E+01 0.7401E+01 0.1009E+00                                 1377800200075 
 0.2622E+01 0.7126E+01 0.1128E+00                                 1377800200076 
 0.2622E+01 0.7414E+01 0.1067E+00                                 1377800200077 
 0.2665E+01 0.7112E+01 0.9784E-01                                 1377800200078 
 0.2676E+01 0.6903E+01 0.1124E+00                                 1377800200079 
 0.2714E+01 0.7147E+01 0.9546E-01                                 1377800200080 
 0.2725E+01 0.7215E+01 0.1174E+00                                 1377800200081 
 0.2767E+01 0.7089E+01 0.9267E-01                                 1377800200082 
 0.2773E+01 0.7321E+01 0.9376E-01                                 1377800200083 
 0.2815E+01 0.7055E+01 0.9288E-01                                 1377800200084 
 0.2821E+01 0.7025E+01 0.9024E-01                                 1377800200085 
 0.2863E+01 0.7268E+01 0.8972E-01                                 1377800200086 
 0.2874E+01 0.7268E+01 0.8737E-01                                 1377800200087 
 0.2916E+01 0.7004E+01 0.8616E-01                                 1377800200088 
 0.2964E+01 0.7411E+01 0.8727E-01                                 1377800200089 
 0.2975E+01 0.7173E+01 0.8455E-01                                 1377800200090 
 0.3011E+01 0.7045E+01 0.8577E-01                                 1377800200091 
 0.3022E+01 0.7121E+01 0.8342E-01                                 1377800200092 
 0.3064E+01 0.7091E+01 0.8518E-01                                 1377800200093 
 0.3090E+01 0.7028E+01 0.8186E-01                                 1377800200094 
 0.3111E+01 0.6809E+01 0.8107E-01                                 1377800200095 
 0.3137E+01 0.7024E+01 0.7983E-01                                 1377800200096 
 0.3163E+01 0.7081E+01 0.8146E-01                                 1377800200097 
 0.3189E+01 0.6942E+01 0.8046E-01                                 1377800200098 
 0.3210E+01 0.6798E+01 0.8083E-01                                 1377800200099 
 0.3236E+01 0.7034E+01 0.7850E-01                                 1377800200100 
 0.3262E+01 0.6624E+01 0.8401E-01                                 1377800200101 
 0.3288E+01 0.6853E+01 0.7666E-01                                 1377800200102 
 0.3313E+01 0.7010E+01 0.8160E-01                                 1377800200103 
 0.3334E+01 0.6784E+01 0.8036E-01                                 1377800200104 
 0.3365E+01 0.6799E+01 0.8496E-01                                 1377800200105 
 0.3385E+01 0.6805E+01 0.8050E-01                                 1377800200106 
 0.3411E+01 0.6614E+01 0.9621E-01                                 1377800200107 
 0.3437E+01 0.6664E+01 0.8026E-01                                 1377800200108 
 0.3462E+01 0.6538E+01 0.8721E-01                                 1377800200109 
 0.3488E+01 0.6946E+01 0.8288E-01                                 1377800200110 
 0.3508E+01 0.6507E+01 0.8281E-01                                 1377800200111 
 0.3534E+01 0.6958E+01 0.9534E-01                                 1377800200112 
 0.3559E+01 0.6994E+01 0.9128E-01                                 1377800200113 
 0.3585E+01 0.6585E+01 0.8658E-01                                 1377800200114 
 0.3610E+01 0.6829E+01 0.8514E-01                                 1377800200115 
 0.3635E+01 0.6640E+01 0.8660E-01                                 1377800200116 
 0.3661E+01 0.6809E+01 0.8748E-01                                 1377800200117 
 0.3686E+01 0.6689E+01 0.9153E-01                                 1377800200118 
 0.3711E+01 0.6485E+01 0.9241E-01                                 1377800200119 
 0.3737E+01 0.6663E+01 0.9595E-01                                 1377800200120 
 0.3747E+01 0.6543E+01 0.9115E-01                                 1377800200121 
 0.3787E+01 0.6767E+01 0.9428E-01                                 1377800200122 
 0.3812E+01 0.6653E+01 0.9238E-01                                 1377800200123 
 0.3837E+01 0.6392E+01 0.9583E-01                                 1377800200124 
 0.3862E+01 0.6456E+01 0.1320E+00                                 1377800200125 
 0.3887E+01 0.6621E+01 0.1035E+00                                 1377800200126 
 0.3937E+01 0.6595E+01 0.1138E+00                                 1377800200127 
 0.3962E+01 0.6747E+01 0.1309E+00                                 1377800200128 
 0.3987E+01 0.6652E+01 0.1081E+00                                 1377800200129 
 0.4012E+01 0.6284E+01 0.1063E+00                                 1377800200130 
 0.4032E+01 0.6410E+01 0.1079E+00                                 1377800200131 
 0.4062E+01 0.6532E+01 0.1038E+00                                 1377800200132 
 0.4087E+01 0.6628E+01 0.1108E+00                                 1377800200133 
 0.4112E+01 0.6381E+01 0.1065E+00                                 1377800200134 
 0.4137E+01 0.6123E+01 0.1236E+00                                 1377800200135 
 0.4162E+01 0.6442E+01 0.1091E+00                                 1377800200136 
 0.4186E+01 0.6514E+01 0.1144E+00                                 1377800200137 
 0.4216E+01 0.6531E+01 0.1074E+00                                 1377800200138 
 0.4241E+01 0.6214E+01 0.1142E+00                                 1377800200139 
 0.4266E+01 0.6384E+01 0.1118E+00                                 1377800200140 
 0.4290E+01 0.6392E+01 0.1179E+00                                 1377800200141 
 0.4315E+01 0.6489E+01 0.1005E+00                                 1377800200142 
 0.4340E+01 0.6301E+01 0.1248E+00                                 1377800200143 
 0.4369E+01 0.6031E+01 0.1179E+00                                 1377800200144 
 0.4394E+01 0.6240E+01 0.1209E+00                                 1377800200145 
 0.4419E+01 0.6250E+01 0.1178E+00                                 1377800200146 
 0.4443E+01 0.6011E+01 0.1204E+00                                 1377800200147 
 0.4473E+01 0.6303E+01 0.1221E+00                                 1377800200148 
 0.4497E+01 0.6022E+01 0.1213E+00                                 1377800200149 
ENDDATA            140          0                                 1377800200150 
ENDSUBENT          149          0                                 1377800299999 
SUBENT        13778003   20011126                             00001377800300001 
BIB                  8         12                                 1377800300002 
REACTION   (72-HF-0(N,EL)72-HF-0,,DA)                             1377800300003 
INC-SOURCE (D-D)                                                  1377800300004 
INC-SPECT  Pulsed source. Energy resolution about 300 keV at 4.5  1377800300005 
            MeV, decreasing to 100 keV at 10.0 MeV.               1377800300006 
SAMPLE     High-purity metallic hafnium.                          1377800300007 
DETECTOR   (SCIN) Liquid scintillation detectors.                 1377800300008 
MONITOR    (1-H-1(N,EL)1-H-1,,DA)                                 1377800300009 
MONIT-REF  (,CONDE+,R,IAEA-227,1983)                              1377800300010 
CORRECTION Corrected for angular resolution, multiple events, and 1377800300011 
            beam attenuation.                                     1377800300012 
           Not corrected for inelastic scattering contamination   1377800300013 
            up to 450 keV excitation energy.                      1377800300014 
ENDBIB              12          0                                 1377800300015 
NOCOMMON             0          0                                 1377800300016 
DATA                 4        480                                 1377800300017 
EN         ANG        DATA       DATA-ERR                         1377800300018 
MEV        ADEG       B/SR       PER-CENT                         1377800300019 
   4.51      17.37       3.6720     3.02                          1377800300020 
   4.51      21.32       2.8200     3.03                          1377800300021 
   4.51      25.28       2.0100     3.03                          1377800300022 
   4.51      27.26       1.6560     3.03                          1377800300023 
   4.51      29.25       1.3220     3.04                          1377800300024 
   4.51      31.24       1.1090     3.04                          1377800300025 
   4.51      35.22       0.6854     3.06                          1377800300026 
   4.51      39.20       0.4168     3.08                          1377800300027 
   4.51      42.69       0.2858     3.10                          1377800300028 
   4.51      46.68       0.2091     3.15                          1377800300029 
   4.51      50.67       0.1689     3.17                          1377800300030 
   4.51      54.66       0.1411     3.18                          1377800300031 
   4.51      58.15       0.1316     3.19                          1377800300032 
   4.51      62.14       0.1107     3.23                          1377800300033 
   4.51      66.14       0.09291    3.25                          1377800300034 
   4.51      70.13       0.07368    3.88                          1377800300035 
   4.51      73.62       0.06697    4.16                          1377800300036 
   4.51      77.62       0.06635    4.23                          1377800300037 
   4.51      81.61       0.07218    4.07                          1377800300038 
   4.51      85.61       0.08511    3.65                          1377800300039 
   4.51      89.10       0.09673    3.32                          1377800300040 
   4.51      93.09       0.1058     3.22                          1377800300041 
   4.51      97.09       0.1129     3.21                          1377800300042 
   4.51     101.10       0.1060     3.22                          1377800300043 
   4.51     105.10       0.09507    3.39                          1377800300044 
   4.51     109.10       0.07883    3.93                          1377800300045 
   4.51     113.10       0.06279    4.75                          1377800300046 
   4.51     117.10       0.04288    6.46                          1377800300047 
   4.51     120.00       0.03401    7.63                          1377800300048 
   4.51     124.00       0.02679    9.21                          1377800300049 
   4.51     128.00       0.02665    9.48                          1377800300050 
   4.51     132.00       0.03130    8.47                          1377800300051 
   4.51     135.50       0.03630    7.67                          1377800300052 
   4.51     139.50       0.04281    6.90                          1377800300053 
   4.51     143.50       0.04788    6.39                          1377800300054 
   4.51     145.50       0.04761    6.38                          1377800300055 
   4.51     147.50       0.04904    6.25                          1377800300056 
   4.51     149.50       0.04762    6.48                          1377800300057 
   4.51     153.40       0.04704    6.54                          1377800300058 
   4.51     157.40       0.04344    6.98                          1377800300059 
   5.01      17.37       3.6870     3.02                          1377800300060 
   5.01      21.32       2.6660     3.03                          1377800300061 
   5.01      25.28       2.0270     3.03                          1377800300062 
   5.01      27.26       1.5510     3.03                          1377800300063 
   5.01      29.25       1.2120     3.04                          1377800300064 
   5.01      31.24       0.9551     3.04                          1377800300065 
   5.01      35.22       0.6403     3.07                          1377800300066 
   5.01      39.20       0.3532     3.09                          1377800300067 
   5.01      42.69       0.2538     3.12                          1377800300068 
   5.01      46.68       0.1889     3.15                          1377800300069 
   5.01      50.67       0.1752     3.16                          1377800300070 
   5.01      54.66       0.1590     3.17                          1377800300071 
   5.01      58.15       0.1462     3.17                          1377800300072 
   5.01      62.14       0.1170     3.21                          1377800300073 
   5.01      66.14       0.09367    3.24                          1377800300074 
   5.01      70.13       0.07038    3.40                          1377800300075 
