ENTRY            13820   20020207                             00001382000000001 
SUBENT        13820001   20020207                             00001382000100001 
BIB                  6         10                                 1382000100002 
INSTITUTE  (1USAANL)                                              1382000100003 
REFERENCE  (J,PR/C,3,1570,197104)                                 1382000100004 
AUTHOR     (J.Vervier,H.H.Bolotin)                                1382000100005 
TITLE      Low-Lying Excited States of 70Ga and 72Ga Populated in 1382000100006 
            Thermal-Neutron Capture.                              1382000100007 
ADD-RES    (DECAY) Constructed the decay scheme of low-lying      1382000100008 
            states in 70Ga and 72Ga.                              1382000100009 
           Determined the neutron binding energies 7651(1) keV    1382000100010 
            for 70Ga and 6519(1) keV for 72Ga.                    1382000100011 
HISTORY    (20020129C) IS+VM                                      1382000100012 
ENDBIB              10          0                                 1382000100013 
COMMON               1          3                                 1382000100014 
EN-DUMMY                                                          1382000100015 
EV                                                                1382000100016 
 0.0253                                                           1382000100017 
ENDCOMMON            3          0                                 1382000100018 
ENDSUBENT           17          0                                 1382000199999 
SUBENT        13820002   20020207                             00001382000200001 
BIB                 12         53                                 1382000200002 
REACTION   (31-GA-69(N,G)31-GA-70,,SPC,,REL/SPA)                  1382000200003 
FACILITY   (REAC,1USAANL) Argonne CP-5 reseach reactor tangential 1382000200004 
            through-tube facility which allows highly collimated  1382000200005 
            beam of gamma rays emitted by target to emerge from   1382000200006 
            reactor tube. Low-energy transitions strongly         1382000200007 
            attenuated in the neutron shielding material.         1382000200008 
INC-SOURCE (REAC) Reactor core with a thermal-neutron flux ~3.E+131382000200009 
            neutrons/cm2/s at the sample position.                1382000200010 
           Slab of borated polyethylene placed between target and 1382000200011 
            detector in order to suppress thermal- and epithermal-1382000200012 
            neutron flux and to limit counting rate in detector   1382000200013 
            to a tolerable range (~2000 counts/sec).              1382000200014 
INC-SPECT  Reactor spectrum with cadmium ratio ~7.                1382000200015 
SAMPLE     Powder oxide Ga2O3 samples, enriched to 99.75% in      1382000200016 
            69Ga, weighing 4.0 g, encapsulated in high-purity     1382000200017 
            graphite sample holders and installed at center of    1382000200018 
            tangential through-tube facility.                     1382000200019 
METHOD     Results obtained from 2 runs lasting 42 h.             1382000200020 
            Pair-spectrometer results obtained after 65-h running 1382000200021 
            time.                                                 1382000200022 
DETECTOR   (GELI) 4-cm3 Ge(Li) spectrometer with energy resolution1382000200023 
            width of ~6 keV at 6-MeV deposited energy used in     1382000200024 
            singles gamma-ray spectroscopy                        1382000200025 
           (BPAIR). Above Ge(Li) detector used as central detector1382000200026 
            with two 4x4-in NaI(T1) side crystals mounted 180     1382000200027 
            degrees apart.                                        1382000200028 
MONITOR    Energy calibration based on the carbon ground-state    1382000200029 
            neutron-capture gamma-ray at 4945.46(17) keV, present 1382000200030 
            due to graphite sample holder.                        1382000200031 
           Relative detection efficiency for double-escape peaks  1382000200032 
            determined empirically as a function of gamma-ray     1382000200033 
            energy using nitrogen neutron-capture gamma-ray       1382000200034 
            spectrum and known relative intensities of its        1382000200035 
            various components.                                   1382000200036 
           Relative intensities normalized to 6391-keV line       1382000200037 
            which was arbitrarily taken as 3.03 photons per       1382000200038 
            100 neutron captures. Value obtained by Rasmussen     1382000200039 
            et al. (unpublished, MIT) for absolute intensity of   1382000200040 
            the same line in natural gallium.                     1382000200041 
ANALYSIS   Minimization program used for analyzing spectra by     1382000200042 
            fitting the peaks with a Gaussian line shape plus a   1382000200043 
            linear background.                                    1382000200044 
           Due to spectral complexities and other uncertainties   1382000200045 
            encountered for transitions energies < 4.5 MeV,       1382000200046 
            capture gamma-ray spectra below this energy were      1382000200047 
            not analyzed in detail.                               1382000200048 
ERR-ANALYS (E-ERR) Uncertainties in gamma-ray energies.           1382000200049 
           (DATA-ERR) Uncertainties of line intensities includes  1382000200050 
            ~15% uncertainty in line intensities in nitrogen used 1382000200051 
            in to determine relative double-escape-peak detector  1382000200052 
            efficiences of Ge(Li) detector.                       1382000200053 
FLAG       (1.) Doubtful line.                                    1382000200054 
STATUS     Data taken from Table I of reference.                  1382000200055 
ENDBIB              53          0                                 1382000200056 
COMMON               1          3                                 1382000200057 
E-NRM                                                             1382000200058 
KEV                                                               1382000200059 
6391.                                                             1382000200060 
ENDCOMMON            3          0                                 1382000200061 
DATA                 5        101                                 1382000200062 
E          E-ERR      DATA       DATA-ERR   FLAG                  1382000200063 
KEV        KEV        ARB-UNITS  ARB-UNITS  NO-DIM                1382000200064 
7651.        1.         0.37       0.06                           1382000200065 
7144.        2.         0.05       0.01     1.                    1382000200066 
6999.        1.         1.64       0.25                           1382000200067 
6959.        1.         0.10       0.02                           1382000200068 
6656.        2.         0.41       0.06                           1382000200069 
6639.        2.         0.10       0.02                           1382000200070 
6629.        1.         0.38       0.06                           1382000200071 
6510.        1.         2.47       0.42                           1382000200072 
6449.        1.         0.22       0.03                           1382000200073 
6401.        2.         0.34       0.05                           1382000200074 
6391.        3.         3.03                                      1382000200075 
6346.        2.         1.19       0.18                           1382000200076 
6341.        2.         0.59       0.10                           1382000200077 
6293.        1.         0.39       0.06                           1382000200078 
6239.        1.         0.34       0.05                           1382000200079 
6207.        1.         0.42       0.06                           1382000200080 
6196.        1.         0.50       0.08                           1382000200081 
6135.        1.         0.79       0.12                           1382000200082 
6120.        1.         0.61       0.09                           1382000200083 
6098.        1.         0.61       0.09                           1382000200084 
6031.        1.         0.11       0.02                           1382000200085 
6020.        1.         0.13       0.02                           1382000200086 
5961.        1.         0.18       0.03                           1382000200087 
5933.        1.         0.19       0.03     1.                    1382000200088 
5927.        1.         0.52       0.08                           1382000200089 
5918.        1.         0.15       0.03                           1382000200090 
5859.        1.         0.29       0.05                           1382000200091 
5829.        1.         0.41       0.06                           1382000200092 
5807.        2.         1.28       0.19                           1382000200093 
5787.        2.         0.08       0.02     1.                    1382000200094 
5747.        2.         0.84       0.13                           1382000200095 
5723.        2.         0.48       0.08                           1382000200096 
5716.        2.         0.12       0.02                           1382000200097 
5683.        1.         0.29       0.05                           1382000200098 
5669.        1.         0.35       0.06                           1382000200099 
5637.        2.         0.36       0.06                           1382000200100 
5627.        2.         1.02       0.16                           1382000200101 
5579.        1.         0.43       0.07                           1382000200102 
5539.        2.         0.77       0.12                           1382000200103 
5511.        2.         0.46       0.07                           1382000200104 
5489.        1.         1.86       0.28                           1382000200105 
5464.        2.         0.08       0.02                           1382000200106 
5440.        2.         0.19       0.03                           1382000200107 
5420.        2.         0.06       0.02                           1382000200108 
5399.        2.         0.22       0.04                           1382000200109 
5342.        2.         0.15       0.03                           1382000200110 
5334.        1.         0.49       0.08                           1382000200111 
5312.        1.         0.37       0.06                           1382000200112 
5302.        1.         0.30       0.05                           1382000200113 
5272.        1.         0.35       0.05                           1382000200114 
5265.        1.         0.10       0.02     1.                    1382000200115 
5244.        1.         0.11       0.02                           1382000200116 
5223.        1.         0.34       0.06                           1382000200117 
5215.        1.         0.23       0.04                           1382000200118 
5193.        1.         0.31       0.06     1.                    1382000200119 
5189.        1.         0.51       0.08                           1382000200120 
5176.        1.         0.36       0.06                           1382000200121 
5143.        2.         0.04       0.01                           1382000200122 
5133.        1.         0.78       0.12                           1382000200123 
5105.        2.         0.24       0.05                           1382000200124 
5096.        2.         0.18       0.04                           1382000200125 
5082.        1.         0.80       0.12                           1382000200126 
5072.        2.         0.29       0.06     1.                    1382000200127 
5068.        1.         0.35       0.07                           1382000200128 
5051.        1.         0.20       0.04                           1382000200129 
5038.        1.         0.38       0.06                           1382000200130 
5029.        2.         0.11       0.02                           1382000200131 
5003.        2.         0.15       0.04     1.                    1382000200132 
4999.        1.         0.70       0.11                           1382000200133 
4979.        2.         0.28       0.06                           1382000200134 
4956.        2.         1.33       0.20                           1382000200135 
4922.        1.         0.14       0.03                           1382000200136 
4910.        2.         0.25       0.04                           1382000200137 
4896.        2.         0.09       0.02                           1382000200138 
4872.        2.         0.17       0.03                           1382000200139 
4863.        1.         0.63       0.10                           1382000200140 
4853.        2.         0.43       0.08                           1382000200141 
4842.        2.         0.28       0.05                           1382000200142 
4823.        1.         1.06       0.16                           1382000200143 
4813.        2.         0.26       0.05                           1382000200144 
4796.        2.         0.13       0.03                           1382000200145 
4779.        2.         0.18       0.05                           1382000200146 
4773.        3.         0.16       0.04                           1382000200147 
4753.        1.         0.84       0.13                           1382000200148 
4721.        1.         0.22       0.03                           1382000200149 
4711.        1.         1.12       0.18                           1382000200150 
4696.        1.         1.48       0.22                           1382000200151 
4682.        3.         0.06       0.02                           1382000200152 
4672.        1.         0.10       0.02                           1382000200153 
4660.        3.         0.02       0.01     1.                    1382000200154 
4631.        1.         0.13       0.03                           1382000200155 
4620.        2.         0.06       0.01     1.                    1382000200156 
4596.        1.         0.39       0.06                           1382000200157 
4589.        2.         0.15       0.03                           1382000200158 
4581.        2.         0.16       0.03                           1382000200159 
4571.        2.         0.18       0.03                           1382000200160 
4565.        2.         0.11       0.02                           1382000200161 
4547.        2.         0.20       0.03                           1382000200162 
4525.        2.         0.09       0.02                           1382000200163 
4511.        2.         0.07       0.02                           1382000200164 
4501.        2.         0.10       0.02                           1382000200165 
ENDDATA            103          0                                 1382000200166 
ENDSUBENT          165          0                                 1382000299999 
SUBENT        13820003   20020207                             00001382000300001 
BIB                 12         53                                 1382000300002 
REACTION   (31-GA-71(N,G)31-GA-72,,SPC,,REL/SPA)                  1382000300003 
FACILITY   (REAC,1USAANL) Argonne CP-5 reseach reactor tangential 1382000300004 
            through-tube facility which allows highly collimated  1382000300005 
            beam of gamma rays emitted by target to emerge from   1382000300006 
            reactor tube. Low-energy transitions strongly         1382000300007 
            attenuated in the neutron shielding material.         1382000300008 
INC-SOURCE (REAC) Reactor core with a thermal-neutron flux ~3.E+131382000300009 
            neutrons/cm2/s at the sample position.                1382000300010 
           Slab of borated polyethylene placed between target and 1382000300011 
            detector in order to suppress thermal- and epithermal-1382000300012 
            neutron flux and to limit counting rate in detector   1382000300013 
            to a tolerable range (~2000 counts/sec).              1382000300014 
INC-SPECT  Reactor spectrum with cadmium ratio ~7.                1382000300015 
SAMPLE     Powder oxide Ga2O3 samples, enriched to 99.61% in      1382000300016 
            71Ga, weighing 1.3 g, encapsulated in high-purity     1382000300017 
            graphite sample holders and installed at center of    1382000300018 
            tangential through-tube facility.                     1382000300019 
METHOD     Results obtained in 3 runs lasting a total of 65 h.    1382000300020 
            Pair-spectrometer data obtained after 61-h running    1382000300021 
            time.                                                 1382000300022 
DETECTOR   (GELI) 14-cm3 Ge(Li) spectrometer with energy resolutio1382000300023 
            width of ~6 keV at 6-MeV deposited energy used in     1382000300024 
            singles gamma-ray spectroscopy                        1382000300025 
           Above Ge(Li) detector used as central detector in pair 1382000300026 
            spectrometer with two 4x4-in NaI(T1) side crystals    1382000300027 
            mounted 180 degrees apart.                            1382000300028 
ANALYSIS   Minimization program used for analyzing spectra by     1382000300029 
            fitting the peaks with a Gaussian line shape plus a   1382000300030 
            linear background.                                    1382000300031 
           Due to spectral complexities and other uncertainties   1382000300032 
            encountered for transitions energies < 4.5 MeV,       1382000300033 
            capture gamma-ray spectra below this energy were      1382000300034 
            not analyzed in detail.                               1382000300035 
MONITOR    Energy calibration based on the carbon ground-state    1382000300036 
            neutron-capture gamma-ray at 4945.46(17) keV, present 1382000300037 
            due to graphite sample holder.                        1382000300038 
           Relative detection efficiency for double-escape peaks  1382000300039 
            determined empirically as a function of gamma-ray     1382000300040 
            energy using nitrogen neutron-capture gamma-ray       1382000300041 
            spectrum and known relative intensities of its        1382000300042 
            various components.                                   1382000300043 
           Relative intensities normalized to 6359-keV line       1382000300044 
            which was arbitrarily taken as 12.09 photons per      1382000300045 
            100 neutron captures - value obtained by Rasmussen    1382000300046 
            et al. (unpublished, MIT) for absolute intensity of   1382000300047 
            the same line in natural gallium.                     1382000300048 
ERR-ANALYS (E-ERR) Uncertainties in gamma-ray energies;           1382000300049 
           (DATA-ERR) Uncertainties in intensities, including     1382000300050 
            ~15% uncertainty of line intensities in nitrogen used 1382000300051 
            in determination of relative double-escape-peak       1382000300052 
            detector efficiences.                                 1382000300053 
FLAG       (1.) Doubtful line.                                    1382000300054 
STATUS     Data taken from Table II of reference.                 1382000300055 
ENDBIB              53          0                                 1382000300056 
COMMON               1          3                                 1382000300057 
E-NRM                                                             1382000300058 
KEV                                                               1382000300059 
