ENTRY            13922   20120808                             13851392200000001 
SUBENT        13922001   20120808                             13851392200100001 
BIB                  5         10                                 1392200100002 
INSTITUTE  (1USABNL,1USASTB,2FR ILL)                              1392200100003 
REFERENCE  (J,NP/A,323,349,197907)                                1392200100004 
AUTHOR     (J.A.Cizewski,R.F.Casten,G.J.Smith,M.R.Macphail,       1392200100005 
            M.L.Stelts,W.R.Kane, H.G.Borner,W.F.Davidson)         1392200100006 
TITLE      The Level Structure of 196Pt                           1392200100007 
HISTORY    (20041118C) DR                                         1392200100008 
           (20050427A) Data units corrected in Subents 2-6.       1392200100009 
           (20120808A) SD: Energy units were corrected (MEV ->    1392200100010 
           KEV) in Subents 2-5.                                   1392200100011 
           EN from COMMON section was deleted in Subent 5.        1392200100012 
ENDBIB              10          0                                 1392200100013 
NOCOMMON             0          0                                 1392200100014 
ENDSUBENT           13          0                                 1392200199999 
SUBENT        13922002   20120809                             13851392200200001 
BIB                 12         37                                 1392200200002 
REACTION   (78-PT-195(N,G)78-PT-196,,SPC,,SPA/REL)                1392200200003 
INC-SPECT  Reactor Spectrum                                       1392200200004 
FACILITY   (REAC,1USABNL) High Flux Beam Reactor filtered beam    1392200200005 
            facility, Bi single crystal filter, for gamma rays    1392200200006 
            from 300 to 2500 keV.                                 1392200200007 
           (REAC,2FR ILL) High Flux Reactor for gamma-rays up     1392200200008 
            to 1500 keV.                                          1392200200009 
DETECTOR   (GELI) Ge(Li) 40cm3 detector at BNL. Ge(Li) has a      1392200200010 
            typical resolution of 2.5 keV at 1.33 MeV.            1392200200011 
           (NAICR) NaI(Tl) scintillators at ILL                   1392200200012 
SAMPLE     Both natural and enriched (97.28% 195Pt) with various  1392200200013 
            weights were used at BNL.                             1392200200014 
           Enriched (97.28% 195Pt) targets in an aluminum frame   1392200200015 
            at ILL                                                1392200200016 
ANALYSIS   Gamma-ray energies from 300 to 1500 keV were measured  1392200200017 
            with Ge(Li) and NaI(Tl); gamma-ray energies from      1392200200018 
            1500 keV up to 2500 keV were measured with Ge(Li)     1392200200019 
            and gamma-ray energies below 300 keV were measured    1392200200020 
            with NaI(Tl)                                          1392200200021 
ERR-ANALYS (DATA-ERR) No information given                        1392200200022 
CORRECTION Relative intensity normalized to 1000 units for 355 keV1392200200023 
            transition. Energy calibration was performed with a   1392200200024 
            calibrated precision pulser and standard radioactive  1392200200025 
            sources. The efficiency calibration of Ge(Li)         1392200200026 
            detectors was based on the method described in        1392200200027 
            REL-REF                                               1392200200028 
REL-REF    (R,,W.R.Kane,J,NIM,56,189,1967)                        1392200200029 
STATUS     Data taken from table 1 of the journal                 1392200200030 
           article                                                1392200200031 
FLAG       (1.) Questionable line                                 1392200200032 
           (2.) Intensity corrected by nearby impurity.           1392200200033 
           (3.) Pair of partially resolved lines. The quoted      1392200200034 
            energies and intensities are the best estimates for   1392200200035 
            the components.                                       1392200200036 
HISTORY    (20050427A) Data units corrected.                      1392200200037 
           (20120808A) SD: Energy units corrected (MEV -> KEV)    1392200200038 
           SF8=REL -> SPA/REL in REACTION code.                   1392200200039 
ENDBIB              37          0                                 1392200200040 
COMMON               1          3                                 1392200200041 
EN-DUMMY                                                          1392200200042 
EV                                                                1392200200043 
0.0253                                                            1392200200044 
ENDCOMMON            3          0                                 1392200200045 
DATA                 5        239                                 1392200200046 
E          E-ERR      DATA       DATA-ERR   FLAG                  1392200200047 
KEV        KEV        ARB-UNITS  ARB-UNITS  NO-DIM                1392200200048 
 138.178   0.004         1.1      0.3                             1392200200049 
 176.830   0.003         2.6      0.7                             1392200200050 
 191.164   0.006         0.9      0.3                             1392200200051 
 192.903   0.010         0.8      0.2                             1392200200052 
 201.769   0.006         0.7      0.2                             1392200200053 
 208.733   0.002         4.8      1.5                             1392200200054 
 209.642   0.006         1.2      0.4                             1392200200055 
 225.810   0.018         0.7      0.3                             1392200200056 
 226.270   0.003         1.3      0.3                             1392200200057 
 242.858   0.017         0.26     0.12                            1392200200058 
 243.119   0.018         0.20     0.10                            1392200200059 
 245.655   0.005         0.5      0.2                             1392200200060 
 276.376   0.021         0.28     0.10                            1392200200061 
 283.092   0.037         0.19     0.10                            1392200200062 
 290.539   0.049         0.22     0.10                            1392200200063 
 291.620   0.007         0.8      0.4                             1392200200064 
 293.522   0.010         0.8      0.3                             1392200200065 
 307.616   0.009         1.6      0.3                             1392200200066 
 310.588   0.008         0.4      0.2                             1392200200067 
 315.58    0.08          0.5      0.2                             1392200200068 
 316.265   0.030         0.9      0.5                             1392200200069 
 326.349   0.004        85.       7.                              1392200200070 
 332.983   0.002       411.      33.                              1392200200071 
 345.973   0.007         0.9      0.2                             1392200200072 
 346.541   0.003         6.6      1.1                             1392200200073 
 355.684   0.002      1000.                                       1392200200074 
 357.729   0.009         0.7      0.2       1.                    1392200200075 
 369.455   0.048         0.4      0.2                             1392200200076 
 370.765   0.044         0.18     0.13                            1392200200077 
 372.292   0.022         0.20     0.09                            1392200200078 
 378.675   0.014         3.2      0.4                             1392200200079 
 383.748   0.008         0.9      0.3                             1392200200080 
 385.161   0.013         0.8      0.3                             1392200200081 
 393.346   0.007        10.3      0.8                             1392200200082 
 402.130   0.007         1.3      0.2                             1392200200083 
 416.443   0.006         1.4      0.4                             1392200200084 
 418.102   0.028         0.7      0.2                             1392200200085 
 418.726   0.027         0.7      0.2                             1392200200086 
 423.004   0.027         1.3      0.2                             1392200200087 
 423.7     0.3           0.6      0.2                             1392200200088 
 430.2     0.3           0.60     0.14      1.                    1392200200089 
 431.982   0.024         2.6      0.4                             1392200200090 
 440.709   0.009         0.8      0.4                             1392200200091 
 443.258   0.009         1.0      0.2                             1392200200092 
 446.613   0.003        15.3      1.1                             1392200200093 
 456.425   0.024         0.56     0.12                            1392200200094 
 459.693   0.027         0.6      0.4                             1392200200095 
 461.863   0.026         0.27     0.6                             1392200200096 
 464.126   0.009         0.60     0.13                            1392200200097 
 470.567   0.019         0.15     0.05                            1392200200098 
 484.438   0.011         2.2      0.7                             1392200200099 
 484.707   0.025         1.4      0.4                             1392200200100 
 521.175   0.005        60.       6.                              1392200200101 
 522.440   0.011         3.7      1.0                             1392200200102 
 526.576   0.026         0.39     0.11                            1392200200103 
 540.333   0.026         1.0      0.2                             1392200200104 
 541.174   0.007         3.1      0.7                             1392200200105 
 541.942   0.020         0.7      0.2                             1392200200106 
 560.354   0.010         1.2      0.3                             1392200200107 
 566.174   0.008         3.6      0.9                             1392200200108 
 566.552   0.042         0.8      0.2                             1392200200109 
 568.849   0.028         0.40     0.13                            1392200200110 
 570.203   0.018         1.4      0.4                             1392200200111 
 587.423   0.017         0.6      0.3                             1392200200112 
 589.434   0.020         0.6      0.3                             1392200200113 
 590.00    0.09          0.6      0.4                             1392200200114 
 594.206   0.033         0.7      0.2                             1392200200115 
 604.616   0.007         8.3      0.7                             1392200200116 
 623.339   0.046         1.2      0.2                             1392200200117 
 626.636   0.018         1.2      0.2                             1392200200118 
 632.80    0.06          0.43     0.12                            1392200200119 
 639.701   0.032         0.50     0.11                            1392200200120 
 641.117   0.042         1.2      0.2                             1392200200121 
 645.950   0.030         1.6      0.4                             1392200200122 
 659.389   0.012         3.7      0.8                             1392200200123 
 662.188   0.016         1.9      0.4                             1392200200124 
 663.950   0.028         1.3      0.2                             1392200200125 
 665.988   0.024         1.0      0.5                             1392200200126 
 666.988   0.032         0.5      0.3                             1392200200127 
 672.900   0.007        30.       2.                              1392200200128 
 677.341   0.030         1.1      0.4                             1392200200129 
 690.403   0.012         2.4      0.4                             1392200200130 
 698.225   0.040         1.7      0.3                             1392200200131 
 705.652   0.036         0.9      0.2                             1392200200132 
 715.3     0.4           0.7      0.2                             1392200200133 
 726.0     0.7           1.8      0.4                             1392200200134 
 727.581   0.023         7.1      1.4                             1392200200135 
 748.66    0.06          1.0      0.4                             1392200200136 
 749.996   0.044         0.7      0.3                             1392200200137 
 752.823   0.014         2.0      0.3                             1392200200138 
 758.358   0.010         6.       2.                              1392200200139 
 761.482   0.016         2.3      0.3                             1392200200140 
 779.630   0.007        39.       3.                              1392200200141 
 800.375   0.047         0.8      0.2                             1392200200142 
 813.801   0.050         1.1      0.2                             1392200200143 
 817.112   0.020         3.3      0.3                             1392200200144 
 833.581   0.050         5.0      0.5                             1392200200145 
 849.74    0.09          0.7      0.2                             1392200200146 
 854.182   0.032         1.6      0.3                             1392200200147 
 864.72    0.08          0.72     0.15                            1392200200148 
 877.769   0.031         1.9      0.3                             1392200200149 
 915.80    0.06          6.5      0.6                             1392200200150 
 918.81    0.14          1.8      0.2                             1392200200151 
 937.62    0.07          1.4      0.2                             1392200200152 
 947.4     0.6           1.2      0.5                             1392200200153 
 955.37    0.13          0.60     0.12                            1392200200154 
 956.4     0.5           1.5      0.5                             1392200200155 
 961.4     0.3           1.9      0.5                             1392200200156 
 969.94    0.12          0.8      0.2                             1392200200157 
 976.34    0.05          1.7      0.3                             1392200200158 
 988.54    0.07          3.1      0.4                             1392200200159 
1005.894   0.020        24.       2.                              1392200200160 
1029.0     0.5           0.9      0.3                             1392200200161 
1031.93    0.08          2.0      0.4                             1392200200162 
1047.044   0.020        30.       2.                              1392200200163 
1048.3     0.7           4.       1.2                             1392200200164 
1055.91    0.14          0.8      0.2                             1392200200165 
1062.66    0.06          2.4      0.5                             1392200200166 
1069.4     0.2           1.5      0.4                             1392200200167 
1080.5     0.4           0.7      0.3       1.                    1392200200168 
1091.331   0.017        30.       2.                              1392200200169 
1096.0     0.3           2.4      0.4                             1392200200170 
1101.6     0.2           3.4      0.4                             1392200200171 
1106.6     0.2           4.4      0.8                             1392200200172 
1113.716   0.040         5.0      0.9                             1392200200173 
1137.012   0.032         4.6      0.1                             1392200200174 
1143.53    0.05          2.0      0.4                             1392200200175 
1150.8     0.3           1.5      0.3                             1392200200176 
1158.82    0.13          1.2      0.2                             1392200200177 
1162.1     0.4           1.5      0.4                             1392200200178 
1188.9     0.2           1.0      0.2                             1392200200179 
1199.496   0.036        10.       2.        2.                    1392200200180 
1204.1     0.2           4.4      0.5       2.                    1392200200181 
1210.2     0.4           1.7      0.4                             1392200200182 
1229.65    0.13          2.4      0.5                             1392200200183 
1243.94    0.07          4.5      0.5                             1392200200184 
1248.838   0.031        16.3      1.4                             1392200200185 
1264.6     0.2           3.3      0.6                             1392200200186 
1272.6     0.5           1.7      0.4                             1392200200187 
1296.49    0.06          7.5      1.0                             1392200200188 
1305.586   0.041        10.4      0.7                             1392200200189 
1311.8     0.6           1.0      0.4       1.                    1392200200190 
1314.9     0.5           1.1      0.4       1.                    1392200200191 
1321.741   0.038        13.8      1.1                             1392200200192 
1330.6     0.5           1.6      0.5                             1392200200193 
1334.3     0.3           2.3      0.5                             1392200200194 
1353.0     0.4           1.3      0.5                             1392200200195 
1358.30    0.08         11.7      1.1                             1392200200196 
1360.4     0.3           5.5      0.8                             1392200200197 
1370.7     0.3           2.0      0.5                             1392200200198 
1379.1     0.3           1.8      0.6                             1392200200199 
1397.9     0.4           1.5      0.5                             1392200200200 
1404.6     0.2           4.3      0.5                             1392200200201 
1422.3     0.3           1.2      0.3                             1392200200202 
1428.7     0.3           1.3      0.3                             1392200200203 
1439.38    0.06         11.0      0.9                             1392200200204 
1446.84    0.12          7.5      0.7                             1392200200205 
1450.1     0.4           1.9      0.5                             1392200200206 
1463.5     0.3           3.7      0.6                             1392200200207 
1467.53    0.08          8.4      0.8                             1392200200208 
1473.97    0.08          9.0      1.5                             1392200200209 
1485.81    0.15          3.6      0.8                             1392200200210 
1491.600   0.044        23.       2.                              1392200200211 
1497.85    0.06         12.5      1.1                             1392200200212 
1510.745   0.048        13.3      1.1                             1392200200213 
1515.5     0.3           1.9      0.6                             1392200200214 
1526.7     0.2           2.3      1.4       2.                    1392200200215 
1532.303   0.047        20.       2.                              1392200200216 
1562.850   0.048        13.5      1.3                             1392200200217 
1576.32    0.11          7.5      1.1                             1392200200218 
1582.5     0.2           3.7      0.6                             1392200200219 
1604.3     0.3           3.3      0.6                             1392200200220 
1613.1     0.3           2.3      0.4                             1392200200221 
1620.7     0.3           5.7      1.0                             1392200200222 
1628.5     0.2           5.7      0.5                             1392200200223 
1632.4     0.2           8.8      0.7                             1392200200224 
1635.2     0.2           3.4      0.5                             1392200200225 
1643.4     0.2           7.1      0.6                             1392200200226 
1646.0     0.5           3.3      0.5                             1392200200227 
1656.5     0.3           3.1      0.4                             1392200200228 
1661.9     0.5           1.1      0.4                             1392200200229 
1671.7     0.4           2.0      0.5                             1392200200230 
