ENTRY            13934   20041203                             00001393400000001 
SUBENT        13934001   20041203                             00001393400100001 
BIB                  5          6                                 1393400100002 
INSTITUTE  (1USABNL)                                              1393400100003 
REFERENCE  (J,PR/C,9,366,197401)                                  1393400100004 
AUTHOR     (D.Breitig,R.F.Casten,G.W.Cole)                        1393400100005 
TITLE      Low-spin States in 200Hg studied with the              1393400100006 
            (n,gamma) reaction.                                   1393400100007 
HISTORY    (20041119C) DR                                         1393400100008 
ENDBIB               6          0                                 1393400100009 
NOCOMMON             0          0                                 1393400100010 
ENDSUBENT            9          0                                 1393400199999 
SUBENT        13934002   20041203                             00001393400200001 
BIB                 11         30                                 1393400200002 
REACTION   (80-HG-199(N,G)80-HG-200,,SPC,,MXW/REL)                1393400200003 
FACILITY  1(REAC,1USABNL) High Flux Beam Reactor                  1393400200004 
          2(SPECC,2DENRIS) Riso bent-crystal spectrometer.        1393400200005 
INC-SPECT 2Thermal neutron spectrum                               1393400200006 
DETECTOR  1 Riso bent crystal spectrometer with                   1393400200007 
            resolution of 400 eV at 1 MeV.                        1393400200008 
          2(GELI) GeLi. detectors of 40 cm3. Typical energy       1393400200009 
            resolution is 2.5 keV FWHM for the 60Co lines.        1393400200010 
SAMPLE    1At Riso: 37 mg of HgS with 97 % of 199Hg               1393400200011 
          2At BNL: 70 mg HgO with 97 % of 199Hg.                  1393400200012 
CORRECTION1 For the bent-crystal spectrometer, the intensities    1393400200013 
            were corrected for the reflectivity of the crystal,   1393400200014 
            absorption between source and detector, self-         1393400200015 
            absorption in the gamma-ray source, and detector      1393400200016 
            efficiency.                                           1393400200017 
          2 For the GeLi, peak intensities were corrected for     1393400200018 
            detector efficiency and absorption and normalized     1393400200019 
            to the relative intensities of the bent-crystal       1393400200020 
            spectrometer measurements.                            1393400200021 
MONITOR   2 For the GeLi, energy calibration was made by          1393400200022 
            comparison with bent-crystal spectrometer energies    1393400200023 
            for some of the strongest lines between 1 and 2 MeV.  1393400200024 
ERR-ANALYS (DATA-ERR) If not given, intensity errors are          1393400200025 
            > 40%.                                                1393400200026 
REL-REF    (R,,W.Mampe,J,ZN/A,26,405,1971)                        1393400200027 
FLAG       (1.) Questionable line.                                1393400200028 
           (2.) Unresolved multiplet                              1393400200029 
           (3.) Possibly impurity line                            1393400200030 
           (4.) Energy Taken from Mampe, see Related reference    1393400200031 
STATUS     Data taken from table I of the journal article         1393400200032 
ENDBIB              30          0                                 1393400200033 
COMMON               1          3                                 1393400200034 
EN-DUMMY                                                          1393400200035 
EV                                                                1393400200036 
0.0253                                                            1393400200037 
ENDCOMMON            3          0                                 1393400200038 
DATA                 6        523                                 1393400200039 
E          E-ERR      DATA       DATA-MAX   DATA-ERR   FLAG       1393400200040 
KEV        KEV        ARB-UNITS  ARB-UNITS  PER-CENT   NO-DIM     1393400200041 
  76.854   0.004         2.1                30.                   1393400200042 
  83.639   0.009         3.9                           1.         1393400200043 
  97.548   0.009         2.5                           1.         1393400200044 
  97.761   0.010         2.3                                      1393400200045 
  99.779   0.010         2.1                           1.         1393400200046 
 113.24    0.02          1.0                           1.         1393400200047 
 115.714   0.009         1.4                30.                   1393400200048 
 130.26    0.02          0.4                           1.         1393400200049 
 137.50    0.02          0.4                                      1393400200050 
 138.471   0.016         0.4                                      1393400200051 
 140.898   0.012         0.5                30.                   1393400200052 
 144.639   0.010         1.1                15.                   1393400200053 
 148.026   0.004         0.95               10.                   1393400200054 
 148.500   0.006         0.17               20.                   1393400200055 
 151.932   0.005         0.28               15.        3.         1393400200056 
 156.634   0.012         0.05                                     1393400200057 
 159.299   0.006         0.32               20.                   1393400200058 
 160.49    0.03          0.11                          1.         1393400200059 
 160.659   0.011         0.07                                     1393400200060 
 162.434   0.013         0.05                          1.         1393400200061 
 164.544   0.006         0.39               10.                   1393400200062 
 164.658   0.015         0.04                          1.         1393400200063 
 167.483   0.007         0.11               20.        3.         1393400200064 
 182.53    0.03          0.07                                     1393400200065 
 182.70    0.03          0.06                          1.         1393400200066 
 185.911   0.010         0.06               30.                   1393400200067 
 185.98    0.02          0.04                          1.         1393400200068 
 186.771   0.003         0.05               35.                   1393400200069 
 189.96    0.02          0.03                          1.         1393400200070 
 190.24    0.02          0.03                          1.         1393400200071 
 197.45    0.02          0.03                                     1393400200072 
 201.91    0.02          0.04               35.                   1393400200073 
 202.966   0.013         0.06               30.                   1393400200074 
 203.135   0.007         0.56               10.                   1393400200075 
 203.832   0.012         0.06               30.                   1393400200076 
 204.417   0.008         0.23               10.                   1393400200077 
 206.083   0.009         0.09               15.                   1393400200078 
 214.44    0.02          0.04                                     1393400200079 
 215.598   0.009         0.13               15.                   1393400200080 
 215.743   0.013         0.06               25.                   1393400200081 
 223.494   0.007         0.11               15.                   1393400200082 
 224.750   0.006         0.19               10.                   1393400200083 
 225.885   0.006         0.65                6.                   1393400200084 
 227.65    0.02          0.04               35.                   1393400200085 
 235.516   0.010         0.05               20.                   1393400200086 
 241.356   0.012         0.05               35.                   1393400200087 
 241.425   0.010         0.07               25.                   1393400200088 
 243.411   0.007         0.25                8.                   1393400200089 
 245.223   0.008         0.16               15.                   1393400200090 
 247.35    0.02          0.03               30.                   1393400200091 
 249.265   0.014         0.03               35.                   1393400200092 
 250.778   0.013         0.04               25.                   1393400200093 
 251.969   0.007         0.72                6.                   1393400200094 
 252.356   0.007         0.41                7.                   1393400200095 
 253.991   0.015         0.04               30.                   1393400200096 
 255.75    0.03          0.05               25.                   1393400200097 
 268.18    0.03          0.03                          1.         1393400200098 
 268.49    0.03          0.03                          1.         1393400200099 
 270.530   0.012         0.07               20.                   1393400200100 
 271.68    0.02          0.06               15.                   1393400200101 
 272.109   0.008         0.33                7.                   1393400200102 
 275.497   0.012         0.06               15.                   1393400200103 
 278.17    0.03          0.07               25.                   1393400200104 
 278.274   0.013         0.09               25.                   1393400200105 
 278.88    0.03          0.03               35.                   1393400200106 
 281.08    0.02          0.05               20.                   1393400200107 
 283.88    0.03          0.04               30.                   1393400200108 
 286.518   0.013         0.07               15.                   1393400200109 
 287.182   0.010         0.11               10.                   1393400200110 
 287.620   0.013         0.06               20.                   1393400200111 
 289.425   0.009         1.30                6.                   1393400200112 
 298.34    0.04          0.03               35.                   1393400200113 
 298.75    0.06          0.04                          1.         1393400200114 
 299.53    0.06          0.05                          1.         1393400200115 
 299.887   0.012         0.09               15.                   1393400200116 
 301.963   0.013         0.07               15.                   1393400200117 
 306.618   0.011         0.18               10.                   1393400200118 
 306.863   0.011         0.12               12.                   1393400200119 
 308.47    0.04          0.03               40.                   1393400200120 
 308.801   0.011         0.14               10.                   1393400200121 
 309.209   0.008         0.55                6.                   1393400200122 
 312.613   0.013         0.08               12.                   1393400200123 
 313.23    0.03          0.04               25.                   1393400200124 
 316.176   0.08          1.12                6.                   1393400200125 
 317.74    0.10          0.03                                     1393400200126 
 318.03    0.08          0.04                                     1393400200127 
 319.566   0.015         0.08               15.                   1393400200128 
 321.55    0.03          0.06               20.                   1393400200129 
 322.57    0.05          0.05               25.                   1393400200130 
 325.31    0.04          0.04               30.                   1393400200131 
 329.27    0.04          0.03               35.                   1393400200132 
 330.303   0.016         0.11               15.                   1393400200133 
 330.84    0.03          0.06                                     1393400200134 
 331.34    0.03          0.05               25.                   1393400200135 
 332.67    0.04          0.05               30.                   1393400200136 
 337.51    0.02          0.05               20.                   1393400200137 
 338.75    0.02          0.2                18.                   1393400200138 
 340.03    0.02          0.09               12.                   1393400200139 
 341.375   0.012         0.2                18.                   1393400200140 
 342.185   0.014         0.2                18.                   1393400200141 
 342.42    0.03          0.05               35.                   1393400200142 
 342.939   0.012         0.39               10.                   1393400200143 
 343.38    0.02          0.07               15.                   1393400200144 
 346.406   0.014         0.19               10.                   1393400200145 
 351.27    0.02          0.31               12.                   1393400200146 
 352.353   0.012         0.27               11.                   1393400200147 
 353.07    0.05          0.04               35.                   1393400200148 
 356.44    0.04          0.09               25.                   1393400200149 
 359.48    0.04          0.07               25.                   1393400200150 
 363.72    0.08          0.04               40.                   1393400200151 
 367.942   0.010      1180.                  4.                   1393400200152 
 376.68    0.02          0.20               25.                   1393400200153 
 376.79    0.02          0.23               20.                   1393400200154 
 380.03    0.02          0.10               13.                   1393400200155 
 383.437   0.011         0.32                8.                   1393400200156 
 387.345   0.009         1.59                6.                   1393400200157 
 392.524   0.017         0.12               11.                   1393400200158 
 395.97    0.04          0.06               25.                   1393400200159 
 397.01    0.02          0.16               13.                   1393400200160 
 397.765   0.014         0.29               11.                   1393400200161 
 398.249   0.009         3.70                5.                   1393400200162 
 398.63    0.02          0.22               14.                   1393400200163 
 399.65    0.05          0.04               40.                   1393400200164 
 404.94    0.04          0.06               17.                   1393400200165 
 408.556   0.010         1.34                6.                   1393400200166 
 409.63    0.03          0.09               18.                   1393400200167 
 414.41    0.07          0.04                          1.         1393400200168 
 415.50    0.03          0.09               13.                   1393400200169 
 419.828   0.010         1.81                6.                   1393400200170 
 423.24    0.03          0.17               14.                   1393400200171 
 427.79    0.03          0.14               13.                   1393400200172 
 428.45    0.03          0.13               13.                   1393400200173 
 429.79    0.07          0.06                                     1393400200174 
 430.368   0.010         4.72                6.                   1393400200175 
 437.03    0.05          0.05                          1.         1393400200176 
 437.56    0.13          0.06               40.                   1393400200177 
 439.52    0.04          0.08               25.                   1393400200178 
 445.686   0.014         0.51                8.                   1393400200179 
 448.91    0.02          1.09                8.                   1393400200180 
 452.30    0.014         0.07                          1.         1393400200181 
 453.60    0.16          0.07                                     1393400200182 
 455.13    0.04          0.11               15.                   1393400200183 
 456.10    0.05          0.07               25.                   1393400200184 
 458.80    0.09          0.07               35.                   1393400200185 
 460.76    0.05          0.09               25.                   1393400200186 
 461.16    0.09          0.07               30.                   1393400200187 
 462.94    0.05          0.08               25.                   1393400200188 
 464.214   0.012         1.31                6.                   1393400200189 
 466.72    0.03          0.10               25.                   1393400200190 
 467.86    0.02          1.65                6.                   1393400200191 
 468.73    0.03          0.29               25.                   1393400200192 
 468.93    0.02          0.35               20.                   1393400200193 
 471.19    0.03          0.14               15.                   1393400200194 
 472.12    0.08          0.07               30.                   1393400200195 
 475.08    0.04          0.10               20.                   1393400200196 
 476.815   0.013         1.95                6.                   1393400200197 
 480.24    0.03          0.22               11.                   1393400200198 
 482.32    0.06          0.08               30.                   1393400200199 
 483.34    0.09          0.07                                     1393400200200 
 485.36    0.02          0.98               11.                   1393400200201 
 485.62    0.02          2.42                8.                   1393400200202 
 486.44    0.07          0.08               35.                   1393400200203 
 487.12    0.03          0.52               11.                   1393400200204 
 487.56    0.02          1.81                7.                   1393400200205 
 490.95    0.02          1.16                6.                   1393400200206 
 491.70    0.06          0.10               25.                   1393400200207 
 495.48    0.08          0.09               40.                   1393400200208 
 495.93    0.02          3.05                6.                   1393400200209 
 497.81    0.02          0.86                7.                   1393400200210 
 498.63    0.04          0.18               13.                   1393400200211 
 502.83    0.04          0.22               11.                   1393400200212 
 505.23    0.03          0.14               17.                   1393400200213 
 516.35    0.03          0.27               15.                   1393400200214 
 517.14    0.07          0.15               25.                   1393400200215 
 520.91    0.05          0.21               17.                   1393400200216 
 521.41    0.07          0.13               30.                   1393400200217 
 532.53    0.06          0.11               25.                   1393400200218 
 533.48    0.03          0.47                9.                   1393400200219 
 534.48    0.03          0.17               18.                   1393400200220 
 535.01    0.05          0.14               20.                   1393400200221 
 537.30    0.05          0.20               16.                   1393400200222 
 540.948   0.016         9.79                6.                   1393400200223 
 544.21    0.07          0.10               20.                   1393400200224 
 546.10    0.02          0.71                7.                   1393400200225 
 546.99    0.12          0.07                          1.         1393400200226 
 551.93    0.08          0.17               30.                   1393400200227 
 552.49    0.19          0.08                          1.         1393400200228 
 553.18    0.02          1.25                7.                   1393400200229 
 556.58    0.02          3.38                6.                   1393400200230 
 558.61    0.05          0.15               20.                   1393400200231 
 562.57    0.03          0.53                8.                   1393400200232 
 563.63    0.09          0.11               30.                   1393400200233 
 564.19    0.05          0.17               20.                   1393400200234 
