ENTRY            13959   20050201                             13321395900000001 
SUBENT        13959001   20050201                             13321395900100001 
BIB                  9         10                                 1395900100002 
INSTITUTE  (2JPNJNC,1USAORL)                                      1395900100003 
REFERENCE  (J,NST,41,1033,2004)                                   1395900100004 
AUTHOR     (K.Furutaka,H.Harada,S.Raman)                          1395900100005 
TITLE      Prompt Gamma Rays Emitted in Thermal-neutron Capture   1395900100006 
            Reaction by 99Tc and its Reaction Cross Section       1395900100007 
FACILITY   (REAC,1USALAS) Los Alamos Omega West Reactor           1395900100008 
INC-SPECT  6x1E11 n/cm2/s of thermal neutrons                     1395900100009 
SAMPLE     84.6 mg of 100 % pure Tc metal target                  1395900100010 
DETECTOR   (GE-IN) 30 cm3 coaxial intrinsic Ge detector           1395900100011 
HISTORY    (20050201C) DR                                         1395900100012 
ENDBIB              10          0                                 1395900100013 
COMMON               1          3                                 1395900100014 
EN-DUMMY                                                          1395900100015 
EV                                                                1395900100016 
0.0253                                                            1395900100017 
ENDCOMMON            3          0                                 1395900100018 
ENDSUBENT           17          0                                 1395900199999 
SUBENT        13959002   20050201                             13321395900200001 
BIB                  3          3                                 1395900200002 
REACTION   (43-TC-99(N,G)43-TC-100,PAR,SIG,,MXW)                  1395900200003 
ERR-ANALYS (ERR-S) Statistical errors                             1395900200004 
STATUS     Data received from K. Furutaka.                        1395900200005 
ENDBIB               3          0                                 1395900200006 
NOCOMMON             0          0                                 1395900200007 
DATA                 4       1086                                 1395900200008 
E          E-ERR      DATA       ERR-S                            1395900200009 
KEV        KEV        MB         MB                               1395900200010 
  30.8     0.06         102.      12.                             1395900200011 
  39.12    0.05          87.       6.                             1395900200012 
  43.18    0.03         269.       7.                             1395900200013 
  45.84    0.08          38.       5.                             1395900200014 
  50.85    0.09           3.1      0.4                            1395900200015 
  51.70    0.09           3.8      0.4                            1395900200016 
  52.85    0.06           6.1      0.4                            1395900200017 
  53.71    0.10           3.1      0.4                            1395900200018 
  56.63    0.06           7.1      0.6                            1395900200019 
  62.79    0.03         399.      12.                             1395900200020 
  63.75    0.04         186.       9.                             1395900200021 
  71.62    0.06          32.       3.                             1395900200022 
  73.11    0.08          22.4      2.4                            1395900200023 
  75.02    0.08         105.      22.                             1395900200024 
  75.52    0.03         364.      22.                             1395900200025 
  76.9     0.5           13.0      2.1                            1395900200026 
  86.76    0.04         457.      30.                             1395900200027 
  90.59    0.03         308.      43.                             1395900200028 
  91.32    0.03        1177.      77.                             1395900200029 
  94.58    0.05           3.7      0.3                            1395900200030 
  99.02    0.03         129.       3.                             1395900200031 
 102.85    0.13          19.       3.                             1395900200032 
 103.80    0.10          31.       3.                             1395900200033 
 105.43    0.08         337.       8.7                            1395900200034 
 105.81    0.06         436.       8.7                            1395900200035 
 107.25    0.15          15.       3.                             1395900200036 
 109.9     0.7            2.4      2.4                            1395900200037 
 113.20    0.03         115.       3.                             1395900200038 
 115.86    0.14           6.5      1.3                            1395900200039 
 118.93    0.03          30.4      1.3                            1395900200040 
 124.66    0.11           8.9      1.2                            1395900200041 
 127.47    0.04          88.       7.                             1395900200042 
 128.08    0.12          35.       6.                             1395900200043 
 129.24    0.07          20.8      1.6                            1395900200044 
 132.88    0.09           5.0      0.6                            1395900200045 
 134.84    0.25           1.7      0.7                            1395900200046 
 139.05    0.11          27.       3.                             1395900200047 
 140.34    0.05          90.       4.                             1395900200048 
 141.49    0.10          32.       4.                             1395900200049 
 144.27    0.03         196.       5.                             1395900200050 
 145.73    0.05          58.       4.                             1395900200051 
 152.74    0.03          78.7      1.1                            1395900200052 
 159.22    0.03          48.3      1.8                            1395900200053 
 160.81    0.18           4.5      1.2                            1395900200054 
 163.12    0.05          29.5      2.2                            1395900200055 
 166.58    0.06         355.      29.                             1395900200056 
 168.87    0.08         503.      47.                             1395900200057 
 169.95    0.18         258.      39.                             1395900200058 
 172.21    0.03       16694.     536.                             1395900200059 
 176.51    0.04          29.4     16.                             1395900200060 
 179.77    0.09          52.       8.                             1395900200061 
 180.36    0.04         112.       9.                             1395900200062 
 182.98    0.21           4.7      1.6                            1395900200063 
 185.67    0.03          57.3      1.2                            1395900200064 
 190.70    0.03          37.9      1.0                            1395900200065 
 194.44    0.04          58.       3.                             1395900200066 
 196.47    0.03         464.       6.                             1395900200067 
 199.3     0.4           13.       7.                             1395900200068 
 199.98    0.11          44.       7.                             1395900200069 
 202.9     0.5            9.       5.                             1395900200070 
 203.7     0.8            6.       5.                             1395900200071 
 206.17    0.03         302.       6.                             1395900200072 
 209.64    0.06          47.       4.                             1395900200073 
 211.31    0.05          76.       4.                             1395900200074 
 213.24    0.03         517.       9.                             1395900200075 
 217.17    0.03         439.      10.                             1395900200076 
 220.18    0.03         206.       6.                             1395900200077 
 221.87    0.05         132.       7.                             1395900200078 
 223.48    0.03        1511.      24.                             1395900200079 
 225.38    0.03         656.      18.                             1395900200080 
 226.42    0.04         304.      14.                             1395900200081 
 230.25    0.03          93.       3.                             1395900200082 
 231.35    0.06          46.       3.                             1395900200083 
 233.22    0.10          16.5      2.0                            1395900200084 
 236.47    0.05          36.6      2.0                            1395900200085 
 238.66    0.11          35.       5.                             1395900200086 
 239.52    0.04          91.       5.                             1395900200087 
 244.68    0.12          21.       3.                             1395900200088 
 247.15    0.16          16.       3.                             1395900200089 
 252.26    0.03         332.       7.                             1395900200090 
 253.56    0.05          96.       5.                             1395900200091 
 257.46    0.06          51.       3.                             1395900200092 
 260.97    0.03         139.       4.                             1395900200093 
 263.58    0.03        1453.      18.                             1395900200094 
 269.15    0.13          38.       6.                             1395900200095 
 270.04    0.04         150.       7.                             1395900200096 
 274.83    0.22          14.       3.                             1395900200097 
 276.55    0.03         849.      10.                             1395900200098 
 280.48    0.08          10.3      1.0                            1395900200099 
 281.98    0.03          57.9      1.2                            1395900200100 
 283.21    0.09          10.8      1.0                            1395900200101 
 285.03    0.07          10.9      0.9                            1395900200102 
 286.83    0.03          31.2      1.1                            1395900200103 
 288.74    0.03          80.3      1.4                            1395900200104 
 291.20    0.14          22.       4.                             1395900200105 
 292.94    0.04          98.       4.                             1395900200106 
 295.43    0.04          94.       4.                             1395900200107 
 297.10    0.07          62.       4.                             1395900200108 
 299.48    0.03        3095.      41.                             1395900200109 
 300.92    0.07         591.      32.                             1395900200110 
 301.65    0.15         129.      37.                             1395900200111 
 304.83    0.07          25.2      1.8                            1395900200112 
 306.09    0.12          13.3      1.7                            1395900200113 
 308.74    0.03          70.3      1.8                            1395900200114 
 312.30    0.03          74.8      2.3                            1395900200115 
 313.45    0.09          24.8      2.0                            1395900200116 
 317.48    0.20          74.      17.                             1395900200117 
 318.39    0.20          72.      17.                             1395900200118 
 321.58    0.06         144.       9.                             1395900200119 
 323.78    0.06         149.      10.                             1395900200120 
 327.45    0.17          10.6     21.                             1395900200121 
 329.43    0.03          67.0     24.                             1395900200122 
 332.41    0.13          13.5     19.                             1395900200123 
 335.29    0.04          47.1     22.                             1395900200124 
 338.95    0.03         661.       7.                             1395900200125 
 340.99    0.03         152.       3.                             1395900200126 
 344.89    0.03         250.       5.                             1395900200127 
 346.36    0.17         153.      60.                             1395900200128 
 346.83    0.20         113.      61.                             1395900200129 
 348.89    0.03         166.       3.                             1395900200130 
 352.00    0.07          28.7      2.4                            1395900200131 
 355.67    0.04          47.4      1.9                            1395900200132 
 357.37    0.04         111.       4.                             1395900200133 
 358.31    0.05          70.       4.                             1395900200134 
 360.49    0.08          17.2      1.6                            1395900200135 
 363.32    0.12          13.3      1.9                            1395900200136 
 364.84    0.06          32.3      1.8                            1395900200137 
 366.32    0.03          60.7      1.8                            1395900200138 
 370.42    0.03          60.6      0.9                            1395900200139 
 372.33    0.05          14.9      0.8                            1395900200140 
 374.32    0.04          17.10     0.10                           1395900200141 
 376.10    0.08          10.5      1.2                            1395900200142 
 378.01    0.10          24.       4.                             1395900200143 
 379.61    0.08          32.       3.                             1395900200144 
 381.86    0.04          69.       3.                             1395900200145 
 385.00    0.03         289.       5.                             1395900200146 
 386.62    0.04          93.       3.                             1395900200147 
 390.04    0.03         241.       5.                             1395900200148 
 393.07    0.04          76.       3.                             1395900200149 
 396.00    0.05          60.       3.                             1395900200150 
 398.00    0.05         142.       7.                             1395900200151 
 399.17    0.03         275.       7.                             1395900200152 
 401.50    0.03          99.       4.                             1395900200153 
 404.53    0.25           5.9      1.5                            1395900200154 
 405.91    0.13          11.5      1.4                            1395900200155 
 409.32    0.19           6.1      1.1                            1395900200156 
 411.20    0.06          20.5      1.2                            1395900200157 
 413.83    0.03         131.4      1.9                            1395900200158 
 419.97    0.23          10.7      2.1                            1395900200159 
 421.73    0.06          50.       3.                             1395900200160 
 423.78    0.08          34.7      2.3                            1395900200161 
 426.10    0.08          31.5      2.3                            1395900200162 
 429.54    0.05         148.       8.                             1395900200163 
 430.50    0.12          56.       8.                             1395900200164 
 433.45    0.06          47.2      2.5                            1395900200165 
 437.55    0.04          20.9      0.9                            1395900200166 
 439.43    0.05          21.1      0.9                            1395900200167 
 440.71    0.14           7.0      0.9                            1395900200168 
 443.60    0.07           9.7      0.7                            1395900200169 
 445.66    0.08           8.4      0.7                            1395900200170 
 448.06    0.04          18.1      0.8                            1395900200171 
 452.87    0.04          53.8      2.3                            1395900200172 
 454.81    0.08          30.0      2.1                            1395900200173 
 456.99    0.03          89.       3.                             1395900200174 
 458.7     0.3           39.8      2.3                            1395900200175 
 460.40    0.04          75.       3.                             1395900200176 
 463.69    0.03         162.       3.                             1395900200177 
 465.95    0.11          20.0      2.1                            1395900200178 
 470.64    0.03         265.       5.                             1395900200179 
 472.1     0.4           14.       3.                             1395900200180 
 473.5     0.6           18.       8.                             1395900200181 
 474.4     0.6           20.       7.                             1395900200182 
 475.61    0.17          33.       5.                             1395900200183 
 479.41    0.09          36.       3.                             1395900200184 
 480.91    0.09          41.       3.                             1395900200185 
 482.46    0.17          19.       3.                             1395900200186 
 484.43    0.03         166.       3.                             1395900200187 
 486.45    0.04          78.       3.                             1395900200188 
 488.79    0.03          73.       3.                             1395900200189 
 491.30    0.05          42.       3.                             1395900200190 
 493.76    0.09          15.8      1.7                            1395900200191 
 495.90    0.09          33.       3.                             1395900200192 
 496.99    0.14          25.       3.                             1395900200193 
 498.50    0.04          47.6      1.7                            1395900200194 
 503.32    0.03          78.1      1.5                            1395900200195 
 514.93    0.03          81.0      2.3                            1395900200196 
 516.73    0.09          15.1      2.4                            1395900200197 
 518.42    0.05          12.2      6.                             1395900200198 
 520.62    0.07          26.       3.                             1395900200199 
 523.34    0.03         167.       3.                             1395900200200 
 528.42    0.13          11.10     0.15                           1395900200201 
 531.85    0.10          15.5      1.6                            1395900200202 
 536.67    0.06          44.       7.                             1395900200203 
 544.32    0.05          98.       5.                             1395900200204 
 545.41    0.14          42.       4.                             1395900200205 
 546.97    0.10          41.       3.                             1395900200206 
 548.29    0.18          16.4      2.4                            1395900200207 
 550.96    0.03          77.5      2.1                            1395900200208 
 552.78    0.10          21.5      1.8                            1395900200209 
 555.01    0.04          50.2      2.0                            1395900200210 
 558.20    0.04          49.5      2.3                            1395900200211 
 562.34    0.04          49.1      1.8                            1395900200212 
 565.21    0.03          59.6      1.7                            1395900200213 
 568.04    0.03          71.4      1.9                            1395900200214 
 569.97    0.03          98.7      2.0                            1395900200215 
 574.37    0.04          58.2      1.9                            1395900200216 
 576.06    0.19          10.4      1.7                            1395900200217 
 578.43    0.14          21.       3.                             1395900200218 
 579.60    0.13          22.       3.                             1395900200219 
 583.28    0.03          65.4      1.5                            1395900200220 
 588.27    0.07          35.5      1.9                            1395900200221 
 593.89    0.06          42.8      1.8                            1395900200222 
 595.55    0.22          10.1      1.8                            1395900200223 
 597.07    0.13          19.1      1.9                            1395900200224 
 599.15    0.14          14.5      1.8                            1395900200225 
 601.06    0.18          10.6      1.9                            1395900200226 
