ENTRY            14146   20130316                             13891414600000001 
SUBENT        14146001   20130316                             13891414600100001 
BIB                  9         28                                 1414600100002 
TITLE      Absolute and relative surrogate measurements of the    1414600100003 
            236U(n,f) cross section as a probe of angular         1414600100004 
            momentum effects                                      1414600100005 
AUTHOR     (B.F.Lyles, L.A.Bernstein, J.T.Burke, F.S.Dietrich,    1414600100006 
            J.Escher, I.Thompson, D.L.Bleuel, R.M.Clark, P.Fallon,1414600100007 
            J.Gibelin, A.O.Macchiavelli, M.A.McMahan, L.Phair,    1414600100008 
            E.Rodriguez-Vieitez, M.Wiedeking, C.W.Beausang,       1414600100009 
            S.R.Lesher, B.Darakchieva, M.Evtimova)                1414600100010 
INSTITUTE  (1USALRL,1USABRK)                                      1414600100011 
           (1USAUSA) University of Richmond, Richmond,  Virginia  1414600100012 
REFERENCE  (J,PR/C,76,014606,2007)                                1414600100013 
FACILITY   (CYCLO,1USABRK) 88 Inch Cyclotron at LBNL              1414600100014 
INC-SOURCE A 42 MeV 3He2+ beam. Data were taken over a period     1414600100015 
            of 8 d with beam intensity fluctuating between 2 and  1414600100016 
            3 enA (electron nano-Ampere).                         1414600100017 
SAMPLE     238U target:                                           1414600100018 
            A self-supporting metallic foil with a thickness of   1414600100019 
             4709 +/- 235 angstroms (761 +/- 38 ug/cm2).          1414600100020 
           235U target:                                           1414600100021 
             Nitrate salt of approximately 720 ug/cm2 thickness,  1414600100022 
             stippled on a 100 ug/cm2 natural carbon backing.     1414600100023 
             The isotopic composition of the target was 99.34%    1414600100024 
             235U, 0.04% 234U, and 0.62% 238U.                    1414600100025 
DETECTOR   (SIBAR) The reaction products were detected using the  1414600100026 
            Silicon Telescope Array for Reaction Studies (STARS)  1414600100027 
HISTORY    (20070711R) Received from B.F.Lyles                    1414600100028 
           (20070712C) DR                                         1414600100029 
           (20130316U) On. INSTITUTE: 1USAUSA added.              1414600100030 
ENDBIB              28          0                                 1414600100031 
NOCOMMON             0          0                                 1414600100032 
ENDSUBENT           31          0                                 1414600199999 
SUBENT        14146002   20130316                             13891414600200001 
BIB                  6          8                                 1414600200002 
REACTION   (92-U-236(N,F),,SIG,,,DERIV)                           1414600200003 
ANALYSIS   (SURGT) 238(3He,alpha+f) surrogate reaction            1414600200004 
COMMENT    Authors recommend this data set for En <3.3 MeV.       1414600200005 
ERR-ANALYS (ERR-SYS) Systematic uncertainty                       1414600200006 
STATUS     (TABLE) Author's data are given in Fig.8 of            1414600200007 
            Phys.Rev.C76(2007)014606                              1414600200008 
           (COREL,14146003) Relative surrogate technique data     1414600200009 
HISTORY    (20130316A) On. REACTION (SF9): DERIV added            1414600200010 
ENDBIB               8          0                                 1414600200011 
COMMON               2          3                                 1414600200012 
ERR-SYS    EN-ERR                                                 1414600200013 
PER-CENT   KEV                                                    1414600200014 
 7.5        210.                                                  1414600200015 
ENDCOMMON            3          0                                 1414600200016 
DATA                 2        175                                 1414600200017 
EN         DATA                                                   1414600200018 
MEV        B                                                      1414600200019 
 20.990     0.8800                                                1414600200020 
 20.870     0.8711                                                1414600200021 
 20.750     0.8897                                                1414600200022 
 20.630     0.8853                                                1414600200023 
 20.510     0.8773                                                1414600200024 
 20.390     0.9010                                                1414600200025 
 20.270     0.9208                                                1414600200026 
 20.150     0.8998                                                1414600200027 
 20.030     0.8968                                                1414600200028 
 19.910     0.9024                                                1414600200029 
 19.790     0.9377                                                1414600200030 
 19.670     0.9018                                                1414600200031 
 19.550     0.9127                                                1414600200032 
 19.430     0.9071                                                1414600200033 
 19.310     0.9179                                                1414600200034 
 19.190     0.9373                                                1414600200035 
 19.070     0.9051                                                1414600200036 
 18.950     0.9059                                                1414600200037 
 18.830     0.9132                                                1414600200038 
 18.710     0.9071                                                1414600200039 
 18.590     0.9257                                                1414600200040 
 18.470     0.8942                                                1414600200041 
 18.350     0.8778                                                1414600200042 
 18.230     0.8633                                                1414600200043 
 18.110     0.8767                                                1414600200044 
 17.990     0.8753                                                1414600200045 
 17.870     0.8408                                                1414600200046 
 17.750     0.8673                                                1414600200047 
 17.630     0.8727                                                1414600200048 
 17.510     0.8819                                                1414600200049 
 17.390     0.8952                                                1414600200050 
 17.270     0.9102                                                1414600200051 
 17.150     0.8935                                                1414600200052 
 17.030     0.9176                                                1414600200053 
 16.910     0.9124                                                1414600200054 
 16.790     0.8994                                                1414600200055 
 16.670     0.9205                                                1414600200056 
 16.550     0.9235                                                1414600200057 
 16.430     0.9022                                                1414600200058 
 16.310     0.9085                                                1414600200059 
 16.190     0.9291                                                1414600200060 
 16.070     0.9063                                                1414600200061 
 15.950     0.8920                                                1414600200062 
 15.830     0.8585                                                1414600200063 
 15.710     0.8527                                                1414600200064 
 15.590     0.8530                                                1414600200065 
 15.470     0.8410                                                1414600200066 
 15.350     0.8403                                                1414600200067 
 15.230     0.8257                                                1414600200068 
 15.110     0.8024                                                1414600200069 
 14.990     0.8103                                                1414600200070 
 14.870     0.7890                                                1414600200071 
 14.750     0.8126                                                1414600200072 
 14.630     0.8043                                                1414600200073 
 14.510     0.7998                                                1414600200074 
 14.390     0.8301                                                1414600200075 
 14.270     0.8207                                                1414600200076 
 14.150     0.8361                                                1414600200077 
 14.030     0.8155                                                1414600200078 
 13.910     0.8373                                                1414600200079 
 13.790     0.8461                                                1414600200080 
 13.670     0.8624                                                1414600200081 
 13.550     0.8899                                                1414600200082 
 13.430     0.8899                                                1414600200083 
 13.310     0.9423                                                1414600200084 
 13.190     0.9389                                                1414600200085 
 13.070     0.9275                                                1414600200086 
 12.950     0.9368                                                1414600200087 
 12.830     0.9630                                                1414600200088 
 12.710     0.9630                                                1414600200089 
 12.590     0.9445                                                1414600200090 
 12.470     0.9526                                                1414600200091 
 12.350     0.9513                                                1414600200092 
 12.230     0.9568                                                1414600200093 
 12.110     0.9972                                                1414600200094 
 11.990     0.9921                                                1414600200095 
 11.870     1.0086                                                1414600200096 
 11.750     1.0284                                                1414600200097 
 11.630     1.0189                                                1414600200098 
 11.510     1.0217                                                1414600200099 
 11.390     1.0375                                                1414600200100 
 11.270     1.0395                                                1414600200101 
 11.150     1.0706                                                1414600200102 
 11.030     1.0944                                                1414600200103 
 10.910     1.0607                                                1414600200104 
 10.790     1.0957                                                1414600200105 
 10.670     1.1202                                                1414600200106 
 10.550     1.1284                                                1414600200107 
 10.430     1.1275                                                1414600200108 
 10.310     1.1202                                                1414600200109 
 10.190     1.1251                                                1414600200110 
 10.070     1.1301                                                1414600200111 
  9.950     1.1621                                                1414600200112 
  9.830     1.1577                                                1414600200113 
  9.710     1.2013                                                1414600200114 
  9.589     1.1743                                                1414600200115 
  9.469     1.2320                                                1414600200116 
  9.349     1.2329                                                1414600200117 
  9.230     1.2270                                                1414600200118 
  9.111     1.2086                                                1414600200119 
  8.992     1.2752                                                1414600200120 
  8.871     1.2592                                                1414600200121 
  8.750     1.2520                                                1414600200122 
  8.630     1.2594                                                1414600200123 
  8.510     1.3012                                                1414600200124 
  8.390     1.2848                                                1414600200125 
  8.270     1.2484                                                1414600200126 
  8.150     1.2665                                                1414600200127 
  8.030     1.2987                                                1414600200128 
  7.910     1.2871                                                1414600200129 
  7.790     1.2331                                                1414600200130 
  7.670     1.2060                                                1414600200131 
  7.550     1.2041                                                1414600200132 
  7.430     1.2030                                                1414600200133 
  7.310     1.1785                                                1414600200134 
  7.190     1.1407                                                1414600200135 
  7.070     1.1458                                                1414600200136 
  6.950     1.1989                                                1414600200137 
  6.830     1.1272                                                1414600200138 
  6.710     1.0677                                                1414600200139 
  6.590     1.0054                                                1414600200140 
  6.470     0.9662                                                1414600200141 
  6.350     0.9122                                                1414600200142 
  6.230     0.8465                                                1414600200143 
  6.110     0.8284                                                1414600200144 
  5.990     0.8038                                                1414600200145 
  5.870     0.7864                                                1414600200146 
  5.750     0.7935                                                1414600200147 
  5.630     0.7588                                                1414600200148 
  5.510     0.7724                                                1414600200149 
  5.390     0.7686                                                1414600200150 
  5.270     0.7886                                                1414600200151 
  5.150     0.7792                                                1414600200152 
  5.030     0.7910                                                1414600200153 
  4.910     0.7884                                                1414600200154 
  4.790     0.7760                                                1414600200155 
  4.670     0.8028                                                1414600200156 
  4.550     0.8054                                                1414600200157 
  4.430     0.8255                                                1414600200158 
  4.310     0.8257                                                1414600200159 
  4.190     0.8055                                                1414600200160 
  4.070     0.8002                                                1414600200161 
  3.950     0.8391                                                1414600200162 
  3.830     0.8340                                                1414600200163 
  3.710     0.8584                                                1414600200164 
  3.590     0.8613                                                1414600200165 
  3.470     0.8770                                                1414600200166 
  3.350     0.9094                                                1414600200167 
  3.230     0.9328                                                1414600200168 
  3.110     0.9102                                                1414600200169 
  2.990     0.9105                                                1414600200170 
  2.870     0.9066                                                1414600200171 
  2.750     0.8972                                                1414600200172 
  2.630     0.9549                                                1414600200173 
  2.510     0.9615                                                1414600200174 
  2.390     0.9424                                                1414600200175 
  2.270     0.9261                                                1414600200176 
  2.150     0.9325                                                1414600200177 
  2.030     0.9066                                                1414600200178 
  1.910     0.8768                                                1414600200179 
  1.790     0.7874                                                1414600200180 
  1.670     0.7343                                                1414600200181 
  1.550     0.6581                                                1414600200182 
  1.430     0.5758                                                1414600200183 
  1.310     0.4437                                                1414600200184 
  1.190     0.3344                                                1414600200185 
  1.070     0.2177                                                1414600200186 
  0.950     0.1154                                                1414600200187 
  0.830     0.0647                                                1414600200188 
  0.710     0.0333                                                1414600200189 
  0.590     0.0183                                                1414600200190 
  0.470     0.0200                                                1414600200191 
  0.350     0.0132                                                1414600200192 
  0.230     0.0066                                                1414600200193 
  0.110     0.0095                                                1414600200194 
ENDDATA            177          0                                 1414600200195 
ENDSUBENT          194          0                                 1414600299999 
SUBENT        14146003   20130316                             13891414600300001 
BIB                  8          9                                 1414600300002 
REACTION   (92-U-236(N,F),,SIG,,,DERIV)                           1414600300003 
ANALYSIS   (SURGT) 238U(3He,a+f)/235U(3He,a+f) surrogate ratio    1414600300004 
MONITOR    (92-U-233(N,F),,SIG)                                   1414600300005 
MONIT-REF  (,,3,ENDF/B-VII.0,,2006)                               1414600300006 
COMMENT    Authors recommend this data set for En >3.3 MeV.       1414600300007 
ERR-ANALYS (ERR-SYS) Systematic uncertainty                       1414600300008 
STATUS     (TABLE) Plot in Fig.12 of Phys.Rev.C76(2007)014606     1414600300009 
           (COREL,14146002) Absolute surrogate technique data     1414600300010 
HISTORY    (20130316A) On. REACTION (SF9): DERIV added            1414600300011 
ENDBIB               9          0                                 1414600300012 
COMMON               2          3                                 1414600300013 
ERR-SYS    EN-ERR                                                 1414600300014 
PER-CENT   KEV                                                    1414600300015 
 7.3        210.                                                  1414600300016 
