ENTRY            14170   20120815                             13851417000000001 
SUBENT        14170001   20120815                             13851417000100001 
BIB                 11         18                                 1417000100002 
TITLE      Determination of the level density of 29Si from        1417000100003 
           Ericson fluctuations                                   1417000100004 
AUTHOR     (V.Mishra,N.Boukharouba,S.M.Grimes,K.Doctor,           1417000100005 
           R.S.Pedroni,R.C.Haight)                                1417000100006 
INSTITUTE  (1USAOHO,1USALAS)                                      1417000100007 
REFERENCE  (J,PR/C,44,2419,1991)                                  1417000100008 
FACILITY   (LINAC,1USALAS) WNR facility at Los Alamos             1417000100009 
SAMPLE     Si sample of cylindrical shape with length of 8.9 cm   1417000100010 
METHOD     (TOF) Neutron energy was determined by time of         1417000100011 
           flight over a 90 m flight path. Total cross section    1417000100012 
           was determined from neutron flux attenuation by the    1417000100013 
           28Si sample                                            1417000100014 
INC-SOURCE (SPALL)                                                1417000100015 
CORRECTION  Dead time correction up to 6%                         1417000100016 
ERR-ANALYS (DATA-ERR) no information given                        1417000100017 
           Statistical errors were about 2.1% around 4MeV         1417000100018 
HISTORY    (20080401C)compiled by S.H.                            1417000100019 
           (20120815U) SD: Small correction in author's name.     1417000100020 
ENDBIB              18          0                                 1417000100021 
NOCOMMON             0          0                                 1417000100022 
ENDSUBENT           21          0                                 1417000199999 
SUBENT        14170002   20080401                             13481417000200001 
BIB                  2          2                                 1417000200002 
REACTION   (14-SI-28(N,TOT),,SIG)                                 1417000200003 
STATUS     (CURVE) data taken from fig. 1. of the reference       1417000200004 
ENDBIB               2          0                                 1417000200005 
NOCOMMON             0          0                                 1417000200006 
DATA                 3        669                                 1417000200007 
EN         DATA       DATA-ERR                                    1417000200008 
MEV        B          B                                           1417000200009 
  5.006E+00  2.269E+00                                            1417000200010 
  5.007E+00  2.116E+00                                            1417000200011 
  5.010E+00  2.224E+00                                            1417000200012 
  5.014E+00  2.282E+00                                            1417000200013 
  5.016E+00  2.309E+00                                            1417000200014 
  5.020E+00  2.367E+00                                            1417000200015 
  5.022E+00  1.932E+00                                            1417000200016 
  5.024E+00  1.908E+00                                            1417000200017 
  5.028E+00  1.816E+00                                            1417000200018 
  5.031E+00  1.558E+00                                            1417000200019 
  5.032E+00  1.616E+00                                            1417000200020 
  5.035E+00  1.459E+00                                            1417000200021 
  5.039E+00  1.507E+00                                            1417000200022 
  5.044E+00  1.602E+00                                            1417000200023 
  5.046E+00  1.507E+00                                            1417000200024 
  5.048E+00  1.575E+00                                            1417000200025 
  5.050E+00  1.646E+00                                            1417000200026 
  5.052E+00  1.558E+00                                            1417000200027 
  5.054E+00  1.660E+00                                            1417000200028 
  5.058E+00  1.388E+00                                            1417000200029 
  5.060E+00  1.646E+00                                            1417000200030 
  5.062E+00  1.962E+00                                            1417000200031 
  5.064E+00  2.126E+00                                            1417000200032 
  5.066E+00  2.150E+00                                            1417000200033 
  5.069E+00  2.286E+00                                            1417000200034 
  5.071E+00  2.445E+00                                            1417000200035 
  5.075E+00  2.473E+00                                            1417000200036 
  5.077E+00  2.534E+00                                            1417000200037 
  5.079E+00  2.398E+00                                            1417000200038 
  5.081E+00  2.326E+00                                            1417000200039 
  5.083E+00  2.258E+00                                            1417000200040 
  5.085E+00  1.837E+00                                            1417000200041 
  5.087E+00  2.017E+00                                            1417000200042 
  5.089E+00  1.952E+00                                            1417000200043 
  5.091E+00  1.911E+00                                            1417000200044 
  5.095E+00  1.785E+00                                            1417000200045 
  5.097E+00  1.894E+00                                            1417000200046 
  5.101E+00  1.758E+00                                            1417000200047 
  5.101E+00  2.143E+00                                            1417000200048 
  5.103E+00  1.785E+00                                            1417000200049 
  5.105E+00  2.126E+00                                            1417000200050 
  5.106E+00  2.177E+00                                            1417000200051 
  5.107E+00  2.262E+00                                            1417000200052 
  5.111E+00  2.381E+00                                            1417000200053 
  5.113E+00  2.279E+00                                            1417000200054 
  5.115E+00  2.360E+00                                            1417000200055 
  5.117E+00  2.194E+00                                            1417000200056 
  5.119E+00  2.177E+00                                            1417000200057 
  5.121E+00  2.143E+00                                            1417000200058 
  5.123E+00  1.945E+00                                            1417000200059 
  5.127E+00  1.646E+00                                            1417000200060 
  5.129E+00  1.697E+00                                            1417000200061 
  5.130E+00  2.204E+00                                            1417000200062 
  5.131E+00  1.966E+00                                            1417000200063 
  5.135E+00  1.874E+00                                            1417000200064 
  5.137E+00  2.200E+00                                            1417000200065 
  5.139E+00  2.245E+00                                            1417000200066 
  5.140E+00  2.336E+00                                            1417000200067 
  5.142E+00  2.575E+00                                            1417000200068 
  5.144E+00  2.377E+00                                            1417000200069 
  5.146E+00  2.853E+00                                            1417000200070 
  5.152E+00  2.833E+00                                            1417000200071 
  5.156E+00  2.704E+00                                            1417000200072 
  5.160E+00  2.265E+00                                            1417000200073 
  5.162E+00  2.064E+00                                            1417000200074 
  5.164E+00  2.408E+00                                            1417000200075 
  5.166E+00  2.108E+00                                            1417000200076 
  5.168E+00  2.000E+00                                            1417000200077 
  5.172E+00  1.952E+00                                            1417000200078 
  5.174E+00  1.813E+00                                            1417000200079 
  5.176E+00  1.642E+00                                            1417000200080 
  5.178E+00  2.061E+00                                            1417000200081 
  5.180E+00  1.928E+00                                            1417000200082 
  5.182E+00  1.945E+00                                            1417000200083 
  5.184E+00  2.010E+00                                            1417000200084 
  5.186E+00  1.850E+00                                            1417000200085 
  5.188E+00  1.928E+00                                            1417000200086 
  5.191E+00  2.231E+00                                            1417000200087 
  5.193E+00  2.193E+00                                            1417000200088 
  5.195E+00  2.578E+00                                            1417000200089 
  5.197E+00  2.367E+00                                            1417000200090 
  5.199E+00  2.557E+00                                            1417000200091 
  5.201E+00  2.534E+00                                            1417000200092 
  5.203E+00  2.615E+00                                            1417000200093 
  5.205E+00  2.234E+00                                            1417000200094 
  5.209E+00  2.360E+00                                            1417000200095 
  5.213E+00  2.044E+00                                            1417000200096 
  5.217E+00  1.744E+00                                            1417000200097 
  5.221E+00  1.884E+00                                            1417000200098 
  5.223E+00  1.619E+00                                            1417000200099 
  5.227E+00  1.993E+00                                            1417000200100 
  5.230E+00  1.653E+00                                            1417000200101 
  5.233E+00  1.802E+00                                            1417000200102 
  5.235E+00  1.993E+00                                            1417000200103 
  5.237E+00  2.037E+00                                            1417000200104 
  5.239E+00  2.268E+00                                            1417000200105 
  5.243E+00  1.758E+00                                            1417000200106 
  5.247E+00  1.789E+00  1.045E-01                                 1417000200107 
  5.251E+00  1.561E+00                                            1417000200108 
  5.253E+00  1.588E+00                                            1417000200109 
  5.261E+00  1.598E+00                                            1417000200110 
  5.263E+00  1.523E+00                                            1417000200111 
  5.265E+00  1.452E+00                                            1417000200112 
  5.267E+00  1.493E+00                                            1417000200113 
  5.269E+00  1.564E+00                                            1417000200114 
  5.271E+00  1.387E+00                                            1417000200115 
  5.274E+00  1.669E+00                                            1417000200116 
  5.276E+00  1.901E+00  1.187E-01                                 1417000200117 
  5.280E+00  1.479E+00                                            1417000200118 
  5.282E+00  1.703E+00                                            1417000200119 
  5.284E+00  1.510E+00                                            1417000200120 
  5.286E+00  1.346E+00                                            1417000200121 
  5.288E+00  1.588E+00                                            1417000200122 
  5.290E+00  1.285E+00                                            1417000200123 
  5.294E+00  1.370E+00                                            1417000200124 
  5.296E+00  1.435E+00                                            1417000200125 
  5.298E+00  2.193E+00                                            1417000200126 
  5.300E+00  1.996E+00                                            1417000200127 
  5.302E+00  2.139E+00                                            1417000200128 
  5.307E+00  2.285E+00                                            1417000200129 
  5.309E+00  2.088E+00                                            1417000200130 
  5.311E+00  2.057E+00                                            1417000200131 
  5.312E+00  1.867E+00                                            1417000200132 
  5.316E+00  1.751E+00                                            1417000200133 
  5.320E+00  1.513E+00                                            1417000200134 
  5.322E+00  1.612E+00                                            1417000200135 
  5.324E+00  1.499E+00                                            1417000200136 
  5.326E+00  1.282E+00                                            1417000200137 
  5.328E+00  1.411E+00                                            1417000200138 
  5.333E+00  1.669E+00                                            1417000200139 
  5.335E+00  1.577E+00                                            1417000200140 
  5.336E+00  1.356E+00                                            1417000200141 
  5.340E+00  1.312E+00                                            1417000200142 
  5.342E+00  1.183E+00                                            1417000200143 
  5.346E+00  1.125E+00                                            1417000200144 
  5.348E+00  1.142E+00                                            1417000200145 
  5.350E+00  1.037E+00                                            1417000200146 
  5.352E+00  9.312E-01                                            1417000200147 
  5.354E+00  1.050E+00                                            1417000200148 
  5.360E+00  9.550E-01                                            1417000200149 
  5.362E+00  1.190E+00                                            1417000200150 
  5.365E+00  1.292E+00                                            1417000200151 
  5.367E+00  1.115E+00                                            1417000200152 
  5.369E+00  1.526E+00                                            1417000200153 
  5.372E+00  1.639E+00                                            1417000200154 
  5.374E+00  1.455E+00                                            1417000200155 
  5.375E+00  1.611E+00                                            1417000200156 
  5.377E+00  1.176E+00                                            1417000200157 
  5.381E+00  1.414E+00                                            1417000200158 
  5.385E+00  1.251E+00  1.182E-01                                 1417000200159 
  5.387E+00  1.567E+00                                            1417000200160 
  5.390E+00  1.632E+00                                            1417000200161 
  5.392E+00  1.659E+00                                            1417000200162 
  5.393E+00  1.479E+00                                            1417000200163 
  5.398E+00  1.635E+00                                            1417000200164 
  5.400E+00  1.557E+00                                            1417000200165 
  5.402E+00  1.584E+00                                            1417000200166 
  5.405E+00  1.817E+00                                            1417000200167 
  5.408E+00  1.509E+00                                            1417000200168 
  5.412E+00  1.353E+00                                            1417000200169 
  5.414E+00  1.535E+00                                            1417000200170 
  5.419E+00  1.550E+00                                            1417000200171 
  5.420E+00  1.790E+00                                            1417000200172 
  5.422E+00  1.577E+00                                            1417000200173 
  5.425E+00  1.757E+00                                            1417000200174 
  5.426E+00  1.310E+00                                            1417000200175 
  5.432E+00  1.475E+00                                            1417000200176 
  5.433E+00  1.112E+00                                            1417000200177 
  5.435E+00  1.130E+00                                            1417000200178 
  5.437E+00  1.082E+00                                            1417000200179 
  5.440E+00  9.560E-01                                            1417000200180 
  5.442E+00  1.031E+00                                            1417000200181 
  5.445E+00  8.210E-01  1.006E-01                                 1417000200182 
  5.449E+00  9.650E-01                                            1417000200183 
  5.451E+00  1.127E+00                                            1417000200184 
  5.453E+00  1.202E+00                                            1417000200185 
  5.455E+00  1.232E+00                                            1417000200186 
  5.458E+00  1.166E+00                                            1417000200187 
  5.460E+00  1.637E+00                                            1417000200188 
  5.462E+00  1.370E+00                                            1417000200189 
  5.464E+00  1.493E+00                                            1417000200190 
  5.468E+00  1.679E+00                                            1417000200191 
  5.469E+00  1.460E+00                                            1417000200192 
  5.471E+00  1.652E+00                                            1417000200193 
  5.475E+00  1.751E+00                                            1417000200194 
  5.480E+00  1.472E+00                                            1417000200195 
  5.482E+00  1.610E+00                                            1417000200196 
  5.484E+00  1.817E+00                                            1417000200197 
  5.486E+00  1.979E+00                                            1417000200198 
  5.489E+00  1.727E+00                                            1417000200199 
  5.493E+00  1.508E+00                                            1417000200200 
  5.495E+00  1.706E+00                                            1417000200201 
  5.497E+00  1.802E+00                                            1417000200202 
  5.498E+00  2.024E+00                                            1417000200203 
  5.500E+00  2.057E+00                                            1417000200204 
  5.504E+00  2.186E+00                                            1417000200205 
  5.507E+00  1.964E+00                                            1417000200206 
  5.509E+00  2.189E+00                                            1417000200207 
  5.518E+00  1.982E+00                                            1417000200208 
  5.520E+00  1.922E+00                                            1417000200209 
  5.525E+00  1.685E+00                                            1417000200210 
  5.527E+00  1.664E+00                                            1417000200211 
  5.529E+00  1.718E+00                                            1417000200212 
  5.534E+00  1.547E+00                                            1417000200213 
  5.538E+00  1.610E+00                                            1417000200214 
  5.539E+00  1.583E+00                                            1417000200215 
  5.541E+00  1.514E+00                                            1417000200216 
  5.543E+00  1.754E+00                                            1417000200217 
  5.545E+00  1.751E+00                                            1417000200218 
  5.547E+00  2.030E+00                                            1417000200219 
  5.551E+00  2.063E+00                                            1417000200220 
  5.556E+00  1.769E+00                                            1417000200221 
  5.557E+00  1.805E+00                                            1417000200222 
