ENTRY            14184   20111031                             13761418400000001 
SUBENT        14184001   20111031                             13761418400100001 
BIB                 11         19                                 1418400100002 
TITLE      Level densities of 28Al,29Si and 41Ca inferred from    1418400100003 
           fluctuation measurement                                1418400100004 
AUTHOR     (W.Abfalterer,R.W.Finlay,S.M.Grimes,V.Mishra)          1418400100005 
INSTITUTE  (1USAOSU)                                              1418400100006 
REFERENCE  (J,PR/C,47,1033,1993)                                  1418400100007 
FACILITY   (LINAC,1USALAS) The data were acquired at the WNR      1418400100008 
           facility at the LANL. A beam of 800 MeV protons        1418400100009 
           produced neutrons over the range from keV to nearly    1418400100010 
           800 MeV by spallation reaction.                        1418400100011 
METHOD     (TRN)                                                  1418400100012 
CORRECTION Analytic dead time correction for lower probability    1418400100013 
           to detect low energy neutrons. Correction factor was   1418400100014 
           up to 1.7.                                             1418400100015 
INC-SOURCE (SPALL) neutrons produced by spallation reaction of    1418400100016 
                  800 MeV protons on tungsten target              1418400100017 
ERR-ANALYS No information on uncertainty                          1418400100018 
HISTORY    (20110922C) Compiled by S.H.                           1418400100019 
STATUS     (COREL,13569001) Based on the same experiment as entry 1418400100020 
            13569, but with full experimental energy resolution   1418400100021 
ENDBIB              19          0                                 1418400100022 
NOCOMMON             0          0                                 1418400100023 
ENDSUBENT           22          0                                 1418400199999 
SUBENT        14184002   20080829                             13761418400200001 
BIB                  2          2                                 1418400200002 
REACTION   (13-AL-27(N,TOT),,SIG)                                 1418400200003 
STATUS     (CURVE) Data taken from Fig.1 of the reference         1418400200004 
ENDBIB               2          0                                 1418400200005 
NOCOMMON             0          0                                 1418400200006 
DATA                 2        514                                 1418400200007 
EN         DATA                                                   1418400200008 
MEV        B                                                      1418400200009 
  5.003E+00  2.569E+00                                            1418400200010 
  5.005E+00  2.585E+00                                            1418400200011 
  5.007E+00  2.529E+00                                            1418400200012 
  5.011E+00  2.480E+00                                            1418400200013 
  5.015E+00  2.450E+00                                            1418400200014 
  5.015E+00  2.451E+00                                            1418400200015 
  5.015E+00  2.410E+00                                            1418400200016 
  5.018E+00  2.424E+00                                            1418400200017 
  5.020E+00  2.384E+00                                            1418400200018 
  5.023E+00  2.367E+00                                            1418400200019 
  5.024E+00  2.347E+00                                            1418400200020 
  5.028E+00  2.353E+00                                            1418400200021 
  5.032E+00  2.380E+00                                            1418400200022 
  5.034E+00  2.363E+00                                            1418400200023 
  5.038E+00  2.409E+00                                            1418400200024 
  5.045E+00  2.373E+00                                            1418400200025 
  5.052E+00  2.404E+00                                            1418400200026 
  5.052E+00  2.432E+00                                            1418400200027 
  5.056E+00  2.391E+00                                            1418400200028 
  5.059E+00  2.334E+00                                            1418400200029 
  5.066E+00  2.332E+00                                            1418400200030 
  5.069E+00  2.323E+00                                            1418400200031 
  5.071E+00  2.315E+00                                            1418400200032 
  5.073E+00  2.278E+00                                            1418400200033 
  5.074E+00  2.265E+00                                            1418400200034 
  5.078E+00  2.251E+00                                            1418400200035 
  5.089E+00  2.257E+00                                            1418400200036 
  5.090E+00  2.305E+00                                            1418400200037 
  5.092E+00  2.281E+00                                            1418400200038 
  5.096E+00  2.298E+00                                            1418400200039 
  5.098E+00  2.275E+00                                            1418400200040 
  5.100E+00  2.286E+00                                            1418400200041 
  5.105E+00  2.346E+00                                            1418400200042 
  5.109E+00  2.365E+00                                            1418400200043 
  5.114E+00  2.327E+00                                            1418400200044 
  5.116E+00  2.311E+00                                            1418400200045 
  5.122E+00  2.290E+00                                            1418400200046 
  5.125E+00  2.301E+00                                            1418400200047 
  5.130E+00  2.276E+00                                            1418400200048 
  5.132E+00  2.266E+00                                            1418400200049 
  5.138E+00  2.338E+00                                            1418400200050 
  5.140E+00  2.299E+00                                            1418400200051 
  5.144E+00  2.263E+00                                            1418400200052 
  5.145E+00  2.223E+00                                            1418400200053 
  5.149E+00  2.289E+00                                            1418400200054 
  5.151E+00  2.238E+00                                            1418400200055 
  5.154E+00  2.198E+00                                            1418400200056 
  5.156E+00  2.256E+00                                            1418400200057 
  5.160E+00  2.270E+00                                            1418400200058 
  5.162E+00  2.235E+00                                            1418400200059 
  5.171E+00  2.277E+00                                            1418400200060 
  5.172E+00  2.308E+00                                            1418400200061 
  5.176E+00  2.300E+00                                            1418400200062 
  5.179E+00  2.265E+00                                            1418400200063 
  5.182E+00  2.251E+00                                            1418400200064 
  5.186E+00  2.218E+00                                            1418400200065 
  5.191E+00  2.195E+00                                            1418400200066 
  5.195E+00  2.141E+00                                            1418400200067 
  5.199E+00  2.089E+00                                            1418400200068 
  5.200E+00  2.097E+00                                            1418400200069 
  5.203E+00  1.998E+00                                            1418400200070 
  5.207E+00  1.984E+00                                            1418400200071 
  5.211E+00  1.942E+00                                            1418400200072 
  5.213E+00  1.908E+00                                            1418400200073 
  5.213E+00  1.932E+00                                            1418400200074 
  5.217E+00  1.918E+00                                            1418400200075 
  5.221E+00  1.893E+00                                            1418400200076 
  5.223E+00  1.906E+00                                            1418400200077 
  5.224E+00  1.955E+00                                            1418400200078 
  5.229E+00  1.960E+00                                            1418400200079 
  5.230E+00  1.939E+00                                            1418400200080 
  5.234E+00  1.987E+00                                            1418400200081 
  5.237E+00  2.008E+00                                            1418400200082 
  5.239E+00  2.055E+00                                            1418400200083 
  5.240E+00  2.081E+00                                            1418400200084 
  5.245E+00  2.090E+00                                            1418400200085 
  5.246E+00  2.101E+00                                            1418400200086 
  5.255E+00  2.111E+00                                            1418400200087 
  5.259E+00  2.072E+00                                            1418400200088 
  5.264E+00  2.039E+00                                            1418400200089 
  5.264E+00  2.051E+00                                            1418400200090 
  5.269E+00  2.077E+00                                            1418400200091 
  5.273E+00  2.061E+00                                            1418400200092 
  5.276E+00  2.036E+00                                            1418400200093 
  5.282E+00  2.053E+00                                            1418400200094 
  5.286E+00  2.033E+00                                            1418400200095 
  5.289E+00  2.044E+00                                            1418400200096 
  5.289E+00  2.062E+00                                            1418400200097 
  5.301E+00  2.055E+00                                            1418400200098 
  5.304E+00  2.070E+00                                            1418400200099 
  5.307E+00  2.099E+00                                            1418400200100 
  5.311E+00  2.136E+00                                            1418400200101 
  5.312E+00  2.166E+00                                            1418400200102 
  5.314E+00  2.210E+00                                            1418400200103 
  5.317E+00  2.222E+00                                            1418400200104 
  5.321E+00  2.217E+00                                            1418400200105 
  5.324E+00  2.269E+00                                            1418400200106 
  5.326E+00  2.309E+00                                            1418400200107 
  5.329E+00  2.351E+00                                            1418400200108 
  5.333E+00  2.340E+00                                            1418400200109 
  5.337E+00  2.312E+00                                            1418400200110 
  5.338E+00  2.332E+00                                            1418400200111 
  5.340E+00  2.348E+00                                            1418400200112 
  5.348E+00  2.384E+00                                            1418400200113 
  5.353E+00  2.352E+00                                            1418400200114 
  5.357E+00  2.326E+00                                            1418400200115 
  5.361E+00  2.294E+00                                            1418400200116 
  5.364E+00  2.287E+00                                            1418400200117 
  5.366E+00  2.261E+00                                            1418400200118 
  5.367E+00  2.227E+00                                            1418400200119 
  5.371E+00  2.245E+00                                            1418400200120 
  5.375E+00  2.235E+00                                            1418400200121 
  5.379E+00  2.287E+00                                            1418400200122 
  5.383E+00  2.241E+00                                            1418400200123 
  5.385E+00  2.268E+00                                            1418400200124 
  5.387E+00  2.342E+00                                            1418400200125 
  5.387E+00  2.291E+00                                            1418400200126 
  5.388E+00  2.359E+00                                            1418400200127 
  5.397E+00  2.364E+00                                            1418400200128 
  5.400E+00  2.350E+00                                            1418400200129 
  5.405E+00  2.333E+00                                            1418400200130 
  5.408E+00  2.311E+00                                            1418400200131 
  5.412E+00  2.258E+00                                            1418400200132 
  5.415E+00  2.176E+00                                            1418400200133 
  5.419E+00  2.129E+00                                            1418400200134 
  5.422E+00  2.118E+00                                            1418400200135 
  5.425E+00  2.059E+00                                            1418400200136 
  5.428E+00  2.044E+00                                            1418400200137 
  5.430E+00  2.008E+00                                            1418400200138 
  5.432E+00  1.985E+00                                            1418400200139 
  5.439E+00  2.014E+00                                            1418400200140 
  5.442E+00  1.991E+00                                            1418400200141 
  5.445E+00  2.029E+00                                            1418400200142 
  5.448E+00  2.048E+00                                            1418400200143 
  5.450E+00  2.042E+00                                            1418400200144 
  5.454E+00  2.068E+00                                            1418400200145 
  5.458E+00  2.096E+00                                            1418400200146 
  5.462E+00  2.083E+00                                            1418400200147 
  5.465E+00  2.064E+00                                            1418400200148 
  5.467E+00  2.039E+00                                            1418400200149 
  5.472E+00  2.046E+00                                            1418400200150 
  5.474E+00  2.058E+00                                            1418400200151 
  5.477E+00  2.088E+00                                            1418400200152 
  5.479E+00  2.136E+00                                            1418400200153 
  5.487E+00  2.109E+00                                            1418400200154 
  5.492E+00  2.099E+00                                            1418400200155 
  5.495E+00  2.075E+00                                            1418400200156 
  5.501E+00  2.036E+00                                            1418400200157 
  5.503E+00  2.018E+00                                            1418400200158 
  5.509E+00  2.025E+00                                            1418400200159 
  5.510E+00  1.974E+00                                            1418400200160 
  5.516E+00  1.967E+00                                            1418400200161 
  5.522E+00  2.009E+00                                            1418400200162 
  5.523E+00  1.974E+00                                            1418400200163 
  5.526E+00  2.004E+00                                            1418400200164 
  5.529E+00  1.981E+00                                            1418400200165 
  5.532E+00  1.993E+00                                            1418400200166 
  5.534E+00  2.012E+00                                            1418400200167 
  5.541E+00  1.974E+00                                            1418400200168 
  5.544E+00  1.988E+00                                            1418400200169 
  5.549E+00  1.951E+00                                            1418400200170 
  5.558E+00  1.969E+00                                            1418400200171 
  5.562E+00  1.978E+00                                            1418400200172 
  5.564E+00  1.996E+00                                            1418400200173 
  5.567E+00  2.005E+00                                            1418400200174 
  5.569E+00  2.012E+00                                            1418400200175 
  5.573E+00  2.069E+00                                            1418400200176 
  5.577E+00  2.095E+00                                            1418400200177 
  5.580E+00  2.188E+00                                            1418400200178 
  5.580E+00  2.140E+00                                            1418400200179 
  5.585E+00  2.229E+00                                            1418400200180 
  5.587E+00  2.201E+00                                            1418400200181 
  5.590E+00  2.186E+00                                            1418400200182 
  5.592E+00  2.157E+00                                            1418400200183 
  5.597E+00  2.137E+00                                            1418400200184 
  5.600E+00  2.092E+00                                            1418400200185 
  5.604E+00  2.027E+00                                            1418400200186 
  5.609E+00  2.037E+00                                            1418400200187 
  5.615E+00  2.011E+00                                            1418400200188 
  5.616E+00  2.013E+00                                            1418400200189 
  5.619E+00  2.022E+00                                            1418400200190 
  5.620E+00  2.042E+00                                            1418400200191 
  5.624E+00  2.086E+00                                            1418400200192 
  5.627E+00  2.072E+00                                            1418400200193 
  5.629E+00  2.056E+00                                            1418400200194 
  5.634E+00  2.065E+00                                            1418400200195 
  5.635E+00  2.050E+00                                            1418400200196 
  5.638E+00  2.015E+00                                            1418400200197 
  5.639E+00  2.023E+00                                            1418400200198 
  5.645E+00  2.071E+00                                            1418400200199 
  5.648E+00  2.046E+00                                            1418400200200 
  5.655E+00  2.025E+00                                            1418400200201 
  5.656E+00  2.036E+00                                            1418400200202 
  5.663E+00  2.019E+00                                            1418400200203 
  5.667E+00  2.036E+00                                            1418400200204 
  5.670E+00  2.067E+00                                            1418400200205 
  5.676E+00  2.075E+00                                            1418400200206 
  5.680E+00  2.104E+00                                            1418400200207 
  5.683E+00  2.149E+00                                            1418400200208 
  5.684E+00  2.158E+00                                            1418400200209 
  5.689E+00  2.141E+00                                            1418400200210 
  5.691E+00  2.126E+00                                            1418400200211 
  5.694E+00  2.155E+00                                            1418400200212 
  5.699E+00  2.149E+00                                            1418400200213 
  5.701E+00  2.130E+00                                            1418400200214 
  5.707E+00  2.106E+00                                            1418400200215 
  5.710E+00  2.051E+00                                            1418400200216 
  5.717E+00  2.092E+00                                            1418400200217 
  5.722E+00  2.060E+00                                            1418400200218 
  5.722E+00  2.073E+00                                            1418400200219 
  5.727E+00  2.052E+00                                            1418400200220 
  5.730E+00  1.992E+00                                            1418400200221 
