ENTRY            22725   20050225                             21712272500000001 
SUBENT        22725001   20050225                             21712272500100001 
BIB                 13         44                                 2272500100002 
TITLE       .Measurement of neutron total cross-sections of Dy    2272500100003 
            and Hf in the energy range 0.002 to 100 keV           2272500100004 
AUTHOR     (H.J.CHO,K.KOBAYASHI,S.YAMAMOTO,Y.FUJITA, Y.LEE,       2272500100005 
           G.KIM, I.S.KO, M.-H.CHO,W.NAMKUNG, S.K.KO)             2272500100006 
INSTITUTE  (2JPNKTO)  H.Cho, K.Kobayashi, S.Yamamoto, Y.Fujita,   2272500100007 
           (3KORPUE)  Y.Lee, G.Kim, I.S.Ko, M.-H.Cho, W.Namkung   2272500100008 
           (3KORULS)  S.K.Ko                                      2272500100009 
REFERENCE  (J,ANE,27,1259,2000)  Main reference, Graphs are given 2272500100010 
FACILITY   (LINAC,2JPNKTO)  46 MeV electron linear accelerator    2272500100011 
            of the Research Reactor Institute, Kyoto University   2272500100012 
           - KURRI. Operated in two different modes - one for     2272500100013 
           thermal region without cadmium sheet with repetition   2272500100014 
           rate 25Hz, pulse width 3 microsec, peak current 200    2272500100015 
           milli-A, and the other for higher energy region with   2272500100016 
           cadmium sheet, repetition rate 100 Hz, pulse width     2272500100017 
           22 nanosec, peak current 1 amp. Electron energy in     2272500100018 
           both modes 30 MeV                                      2272500100019 
INC-SOURCE (PHOTO)  Tantalum target consisting of 12 Ta plates    2272500100020 
             5 cm diam, 3 cm thick set at the center of an        2272500100021 
             octagonal water tank, to moderate fast neutrons      2272500100022 
INC-SPECT  .A set of notch filters of Co, Ag, Mn and Cd were      2272500100023 
            mounted in front of the sample changer - for the      2272500100024 
            background measurement and energy calibration         2272500100025 
METHOD     (TOF)  Flight path is 22.1 m at the angle 90 degree    2272500100026 
                  relative to electron beam                       2272500100027 
DETECTOR   (SCIN)  Li-6 glass scintillation counter 12.7 cm       2272500100028 
            diameter, 1.27 cm thick, mounted on EMI-9618/R        2272500100029 
            photomultiplier - for neutron detection.              2272500100030 
           (PROPC) BF3 counter for neutron flux determination     2272500100031 
CORRECTION .Corrections were made for -                           2272500100032 
            -Dead time of the time analyser,                      2272500100033 
            -Attenuation of the neutron beam die to the thickness 2272500100034 
             of the samples,                                      2272500100035 
            -Impurity elements Ta and Al                          2272500100036 
MONITOR    (5-B-10(N,A)3-LI-7,,SIG)                               2272500100037 
ERR-ANALYS (ERR-T)   Max Total error                              2272500100038 
           (ERR-S)   Statistical error                            2272500100039 
           (ERR-SYS) Max systematic error                         2272500100040 
           (ERR-1)   Min systematic error                         2272500100041 
           (ERR-2)   Max error due to geometrical factor for the  2272500100042 
                     samples                                      2272500100043 
           (ERR-3)   Max error due to detector efficiency         2272500100044 
           (ERR-4)   Min error due to detector efficiency         2272500100045 
HISTORY    (20050225C)   SM                                       2272500100046 
ENDBIB              44          0                                 2272500100047 
COMMON               6          3                                 2272500100048 
ERR-T      ERR-SYS    ERR-1      ERR-2      ERR-3      ERR-4      2272500100049 
PER-CENT   PER-CENT   PER-CENT   PER-CENT   PER-CENT   PER-CENT   2272500100050 
   3.0        1.0        0.5         0.1      1.98       1.85     2272500100051 
ENDCOMMON            3          0                                 2272500100052 
ENDSUBENT           51          0                                 2272500199999 
SUBENT        22725002   20050225                             21712272500200001 
BIB                  4         11                                 2272500200002 
REACTION   (66-DY-0(N,TOT),,SIG)                                  2272500200003 
SAMPLE     .Three metal transmission samples wer placed at the    2272500200004 
            midpoint of the flight path and were cycled into      2272500200005 
            the neutron beam by an automatic sample changer       2272500200006 
            with four sample positions.                           2272500200007 
           .Purity of all samples were 99.9%, size 5.0 x 5.0 cm2, 2272500200008 
            Thicknesses - 1st 0.50 mm = 1.584 atoms/kb,           2272500200009 
                          2nd 3.00 mm = 9.506 atoms/kb,           2272500200010 
                          3d  5.00 mm =15.843 atoms/kb,           2272500200011 
ERR-ANALYS (ERR-5) Min statistical error                          2272500200012 
STATUS     (TABLE) Delivered by INTERNET from authors             2272500200013 
ENDBIB              11          0                                 2272500200014 
COMMON               1          3                                 2272500200015 
ERR-5                                                             2272500200016 
PER-CENT                                                          2272500200017 
   0.65                                                           2272500200018 
ENDCOMMON            3          0                                 2272500200019 
DATA                 3        309                                 2272500200020 
EN         DATA       ERR-S                                       2272500200021 
EV         B          B                                           2272500200022 
     0.0020  3560.8482    85.6873                                 2272500200023 
     0.0021  3426.9598    80.0523                                 2272500200024 
     0.0022  3291.1866    66.9208                                 2272500200025 
     0.0024  3131.5958    77.0630                                 2272500200026 
     0.0025  3016.4954    73.2988                                 2272500200027 
     0.0027  2908.8107    64.0287                                 2272500200028 
     0.0028  2879.4497    53.8335                                 2272500200029 
     0.0030  2806.4053    54.9860                                 2272500200030 
     0.0032  2716.1385    42.9606                                 2272500200031 
     0.0033  2751.3966    59.3843                                 2272500200032 
     0.0035  2687.3828    53.3359                                 2272500200033 
     0.0038  2617.2959    52.0814                                 2272500200034 
     0.0040  2501.4076    49.3785                                 2272500200035 
     0.0042  2399.1562    40.0999                                 2272500200036 
     0.0045  2297.0131    55.1110                                 2272500200037 
     0.0047  2104.3388    70.1167                                 2272500200038 
     0.0050  2200.1197    48.0563                                 2272500200039 
     0.0053  2154.6058    53.4236                                 2272500200040 
     0.0056  2140.4688    61.9501                                 2272500200041 
     0.0060  2113.1120    46.9543                                 2272500200042 
     0.0063  1985.6210    38.4725                                 2272500200043 
     0.0067  1966.1419    55.5301                                 2272500200044 
     0.0071  1957.2833    54.3336                                 2272500200045 
     0.0075  1937.9555    50.7928                                 2272500200046 
     0.0079  1864.4044    38.3451                                 2272500200047 
     0.0084  1836.8812    38.4996                                 2272500200048 
     0.0089  1769.8147    37.0956                                 2272500200049 
     0.0094  1716.3549    34.7985                                 2272500200050 
     0.0100  1683.7417    29.2535                                 2272500200051 
     0.0106  1627.7454    27.1398                                 2272500200052 
     0.0112  1592.5855    24.1914                                 2272500200053 
     0.0119  1552.2796    21.5540                                 2272500200054 
     0.0126  1549.2460    20.7249                                 2272500200055 
     0.0133  1484.1671    17.6854                                 2272500200056 
     0.0141  1444.2006    16.4107                                 2272500200057 
     0.0150  1392.1351    15.1658                                 2272500200058 
     0.0158  1355.8853    14.0167                                 2272500200059 
     0.0168  1328.1789    13.0520                                 2272500200060 
     0.0178  1294.8804    11.8986                                 2272500200061 
     0.0188  1251.0504    10.8595                                 2272500200062 
     0.0200  1224.3829    10.1183                                 2272500200063 
     0.0211  1189.9746     9.3230                                 2272500200064 
     0.0224  1157.9628     8.5933                                 2272500200065 
     0.0237  1117.6362     7.9418                                 2272500200066 
     0.0251  1080.9609     7.3455                                 2272500200067 
     0.0266  1061.7430     6.8476                                 2272500200068 
     0.0282  1032.4586     6.3315                                 2272500200069 
     0.0299  1005.6172     5.9456                                 2272500200070 
     0.0316   974.1288     5.5715                                 2272500200071 
     0.0335   944.5854     5.2283                                 2272500200072 
     0.0355   918.3979     4.9232                                 2272500200073 
     0.0376   895.9044     4.6304                                 2272500200074 
     0.0398   866.3829     4.3527                                 2272500200075 
     0.0422   835.7219     4.1088                                 2272500200076 
     0.0447   816.1195     3.9278                                 2272500200077 
     0.0473   788.3532     3.7344                                 2272500200078 
     0.0501   773.7312     3.5965                                 2272500200079 
     0.0531   752.1974     3.4528                                 2272500200080 
     0.0562   726.0797     3.3188                                 2272500200081 
     0.0596   706.3510     3.2141                                 2272500200082 
     0.0631   683.5334     3.1190                                 2272500200083 
     0.0668   667.6722     3.0547                                 2272500200084 
     0.0708   651.0146     2.9993                                 2272500200085 
     0.0750   632.4778     2.9505                                 2272500200086 
     0.0794   606.5031     2.9117                                 2272500200087 
     0.0841   593.6347     2.9052                                 2272500200088 
     0.0891   577.0138     2.9146                                 2272500200089 
     0.0944   557.5233     2.9217                                 2272500200090 
     0.1000   543.3255     2.9635                                 2272500200091 
     0.1059   525.3841     3.0134                                 2272500200092 
     0.1122   508.9386     3.0718                                 2272500200093 
     0.1189   496.0616     3.1569                                 2272500200094 
     0.1259   482.4661     3.2657                                 2272500200095 
     0.1334   461.6198     3.3704                                 2272500200096 
     0.1413   453.6037     3.5208                                 2272500200097 
     0.1496   440.5643     3.6611                                 2272500200098 
     0.1585   421.7205     3.8274                                 2272500200099 
     0.1679   416.5112     4.0011                                 2272500200100 
     0.1778   400.5608     4.1903                                 2272500200101 
     0.1884   389.6380     4.3484                                 2272500200102 
     0.1995   373.3974     4.5013                                 2272500200103 
     0.2113   375.8813     4.6325                                 2272500200104 
     0.2239   355.1396     4.7328                                 2272500200105 
     0.2371   345.1021     4.7650                                 2272500200106 
     0.2512   333.5284     4.7733                                 2272500200107 
     0.2661   317.1949     4.7525                                 2272500200108 
     0.2818   313.8533     4.7256                                 2272500200109 
     0.2985   299.8525     4.6580                                 2272500200110 
     0.3162   298.4053     4.5825                                 2272500200111 
     0.3350   279.0137     4.4962                                 2272500200112 
     0.3548   280.0883     4.4318                                 2272500200113 
     0.3758   265.3919     4.3469                                 2272500200114 
     0.3981   252.6051     4.2570                                 2272500200115 
     0.4217   242.4714     4.1886                                 2272500200116 
     0.4467   240.3853     4.1260                                 2272500200117 
     0.4732   228.8589     4.0603                                 2272500200118 
     0.5012   208.8775     3.9995                                 2272500200119 
     0.5309   207.7946     3.9584                                 2272500200120 
     0.5623   207.5927     3.9075                                 2272500200121 
     0.5957   205.0803     3.8477                                 2272500200122 
     0.6310   201.1078     3.7932                                 2272500200123 
     0.6683   184.6254     3.7371                                 2272500200124 
     0.7079   170.7673     3.6862                                 2272500200125 
     0.7499   175.4386     3.6287                                 2272500200126 
     0.7943   164.3339     3.5626                                 2272500200127 
     0.8414   161.1501     3.5210                                 2272500200128 
     0.8913   163.1935     3.4539                                 2272500200129 
     0.9441   144.7588     3.4082                                 2272500200130 
     1.0000   150.5850     3.3693                                 2272500200131 
     1.0593   142.5204     3.3198                                 2272500200132 
     1.1220   137.8612     3.2845                                 2272500200133 
     1.1885   146.7357     3.2344                                 2272500200134 
     1.2589   146.6451     3.2120                                 2272500200135 
     1.3335   165.2719     3.2016                                 2272500200136 
     1.4125   180.5648     3.1949                                 2272500200137 
     1.4962   225.5623     3.2602                                 2272500200138 
     1.5849   357.7680     3.7278                                 2272500200139 
     1.6788  1038.9896     8.9289                                 2272500200140 
     1.7783  2814.5381     9.2285                                 2272500200141 
     1.8836   927.5322     3.5549                                 2272500200142 
     1.9953   286.0503     2.9976                                 2272500200143 
     2.1135   159.9361     2.8664                                 2272500200144 
     2.2387   124.0291     2.8127                                 2272500200145 
     2.3714   103.1534     2.7723                                 2272500200146 
     2.5119   107.4996     2.7779                                 2272500200147 
     2.6607   194.3011     3.0559                                 2272500200148 
     2.8184   602.6111     2.9664                                 2272500200149 
     2.9854   178.7605     2.6539                                 2272500200150 
     3.1623   101.9902     2.6064                                 2272500200151 
     3.3497   103.4073     2.6062                                 2272500200152 
     3.5481   140.2813     2.8408                                 2272500200153 
     3.7584   919.0031     3.1545                                 2272500200154 
     3.9811   418.9619     2.6168                                 2272500200155 
     4.2170   185.2313     2.7298                                 2272500200156 
     4.4668   692.5830     2.7868                                 2272500200157 
     4.7315   306.7188     2.6585                                 2272500200158 
     5.0119   341.9842     3.5587                                 2272500200159 
     5.3088   994.2730     8.3543                                 2272500200160 
     5.6234  4337.6921     8.6547                                 2272500200161 
     5.9566  1831.9760     3.2330                                 2272500200162 
     6.3096   481.3989     2.4959                                 2272500200163 
     6.6834   190.1826     2.3129                                 2272500200164 
     7.0795   105.8646     2.2436                                 2272500200165 
     7.4989    76.1625     2.2209                                 2272500200166 
     7.9433   196.7371     2.2121                                 2272500200167 
     8.4140    95.9206     2.1444                                 2272500200168 
     8.9125    38.0571     2.1218                                 2272500200169 
     9.4406    34.3179     2.1127                                 2272500200170 
    10.0000    41.9389     2.1505                                 2272500200171 
    10.5925   667.9887     2.2662                                 2272500200172 
    11.2202   100.2277     2.0842                                 2272500200173 
    11.8850    36.1340     2.0218                                 2272500200174 
    12.5893    43.6402     2.0064                                 2272500200175 
    13.3352    30.7005     2.0233                                 2272500200176 
    14.1254    81.1522     2.0502                                 2272500200177 
    14.9624   479.7067     2.0309                                 2272500200178 
    15.8489    88.5439     2.2271                                 2272500200179 
    16.7880  1089.6213     2.1940                                 2272500200180 
    17.7828   103.6561     1.9647                                 2272500200181 
    18.8365   473.9297     1.9367                                 2272500200182 
    19.9526    60.0921     1.9334                                 2272500200183 
    21.1349   266.1972     1.9215                                 2272500200184 
    22.3872    30.1780     1.8610                                 2272500200185 
    23.7137    25.6991     1.8198                                 2272500200186 
    25.1189    85.3964     1.8062                                 2272500200187 
    26.6073    38.0911     1.7920                                 2272500200188 
    28.1838    21.6485     1.7772                                 2272500200189 
    29.8538    77.9151     1.7631                                 2272500200190 
    31.6228    27.4187     1.7511                                 2272500200191 
    33.4965    19.6849     1.7483                                 2272500200192 
