ENTRY            22912   20060226                             21762291200000001 
SUBENT        22912001   20060226                             21762291200100001 
BIB                 12         47                                 2291200100002 
TITLE      .Complete spectroscopy of the 162-Dy nucleus           2291200100003 
AUTHOR     (A.APRAHAMIAN,X.WU,S.R.LESHER,D.D.WARNER,W.GELLETLY,   2291200100004 
           H.G.BORNER,F.HOYLER,K.SCHRECKENBACH,R.F.CASTEN,Z.R.SHI,2291200100005 
           D.KUZNEZOV,M.IBRAHIM,A.O.MACCHIAVELLI,M.A.BRINKMAN,    2291200100006 
           J.A.BECKER)                                            2291200100007 
INSTITUTE  (1USANOT) Aprahamian,Wu,Lesher                         2291200100008 
           (2UK CCH) Warner                                       2291200100009 
           (2UK SUR) Gelletly                                     2291200100010 
           (2FR ILL) Borner,Hoyler,Schreckenbach, and experimental2291200100011 
                     site                                         2291200100012 
           (1USAYAL) Casten,Kuznezov,Ibrahim                      2291200100013 
           (3CPRAEP) Shi                                          2291200100014 
           (1USABRK) Macchiavelli                                 2291200100015 
           (1USALRL) Brinkman,Becker                              2291200100016 
REFERENCE  (J,NP/A,764,42,2006)                                   2291200100017 
FACILITY   (REAC,2FR ILL) High flux reactor.                      2291200100018 
           (SPECC,2FR ILL) GAMS 1,2,3 three curved crystal        2291200100019 
            spectrometers.                                        2291200100020 
            Operate in DuMond geometry using principle of Bragg   2291200100021 
            diffraction from 110 refraction planes in quartz      2291200100022 
            crystals.                                             2291200100023 
            Iron free, beta spectrometer BILL at 2FR ILL          2291200100024 
SAMPLE     40 and 20 mg of Dy2-O3 oxide enriched to 90.41% in     2291200100025 
           Dy-161 for gamma-ray measurements.                     2291200100026 
           Two targets for conversion electron spectra            2291200100027 
           measurements:                                          2291200100028 
           - 46 mg of Dy2-O3, for electron range 550keV-2MeV.     2291200100029 
           - prepared by evaporation, thickness 160 microg/cm2,   2291200100030 
           3x10 cm area. For electron range 30-600 keV.           2291200100031 
           Target of 2.0 gm of enriched Dy-161 was irradiated with2291200100032 
           external thermal beam flux of 1.E+8 n/(cm2*s).         2291200100033 
           10 mg/cm2 thickness, self-supporting, isotopic         2291200100034 
           enrichment 98% in 160-Gd.                              2291200100035 
DETECTOR   (MWPC) 10 wire proportional counters to detect         2291200100036 
            electrons.                                            2291200100037 
           (GE) single Ge detector for gamma-rays.                2291200100038 
METHOD     (GSPEC)                                                2291200100039 
           (BSPEC)                                                2291200100040 
           (COINC)                                                2291200100041 
INC-SOURCE (REAC)                                                 2291200100042 
INC-SPECT  Thermal neutron of 5.5E+14 n/(cm2*s) flux for          2291200100043 
           gamma-ray measurements.                                2291200100044 
           Thermal neutron of 3.E+14 n/(cm2*s) flux for           2291200100045 
           conversion electron spectra measurements.              2291200100046 
COMMENT     E-mail of corresponding author:                       2291200100047 
                  ani.aprahamian@nd.edu                           2291200100048 
HISTORY    (20060226C)  M.M. / S.M.                               2291200100049 
ENDBIB              47          0                                 2291200100050 
COMMON               1          3                                 2291200100051 
EN-DUMMY                                                          2291200100052 
EV                                                                2291200100053 
 0.0253                                                           2291200100054 
ENDCOMMON            3          0                                 2291200100055 
ENDSUBENT           54          0                                 2291200199999 
SUBENT        22912002   20060226                             21762291200200001 
BIB                  5          9                                 2291200200002 
REACTION   (66-DY-161(N,G)66-DY-162,,SPC,,REL/MXW)                2291200200003 
            Gamma-transitions intensities.                        2291200200004 
            Intensity units are not presented in Reference.       2291200200005 
FLAG       (1.) Spin of initial level is 3. or 4.                 2291200200006 
EN-SEC     (E,G) Energy of gamma transition                       2291200200007 
ERR-ANALYS (DATA-ERR)  Errors are not specified.                  2291200200008 
           (LVL-INI-ER) Error of LVL-INI energy                   2291200200009 
           (E-ERR) Error of gamma energy                          2291200200010 
STATUS      From Table 1 of Main Ref.                             2291200200011 
ENDBIB               9          0                                 2291200200012 
NOCOMMON             0          0                                 2291200200013 
DATA                 8        195                                 2291200200014 
E          E-ERR      DATA       DATA-ERR   LVL-INI    LVL-INI-ER 2291200200015 
LVL-FIN    FLAG                                                   2291200200016 
KEV        KEV        ARB-UNITS  ARB-UNITS  KEV        KEV        2291200200017 
KEV        NO-DIM                                                 2291200200018 
  47.705      0.005      0.04     0.02      1999.085   0.006      2291200200019 
   1951.383     1.                                                2291200200020 
  80.659      0.007    170.9      8.4         80.      0.007      2291200200021 
      0.000                                                       2291200200022 
  86.918      0.001      0.33     0.02      1297.001   0.001      2291200200023 
   1210.084                                                       2291200200024 
  89.942      0.001      1.34     0.04      1575.608   0.002      2291200200025 
   1485.666                                                       2291200200026 
  95.158      0.001      0.45     0.02      1485.666   0.002      2291200200027 
   1390.507                                                       2291200200028 
  98.054      0.003      0.09     0.01      1060.986   0.001      2291200200029 
    962.936                                                       2291200200030 
  98.175      0.006      0.03     0.01      1669.078   0.002      2291200200031 
   1570.906                                                       2291200200032 
  98.753      0.001      1.9      0.1       1634.411   0.001      2291200200033 
   1535.660                                                       2291200200034 
 114.245      0.005      4.7      0.3       1297.001   0.001      2291200200035 
   1182.759                                                       2291200200036 
 117.467      0.001      0.93     0.04      1751.879   0.003      2291200200037 
   1634.411                                                       2291200200038 
 120.819      0.006      0.05     0.01      1574.288   0.003      2291200200039 
   1453.462                                                       2291200200040 
 121.774      0.002      0.14     0.01      1182.759   0.001      2291200200041 
   1060.986                                                       2291200200042 
 149.100      0.002      3.4      0.1       1210.084   0.001      2291200200043 
   1060.986                                                       2291200200044 
 150.653      0.005      0.52     0.02      1669.078   0.002      2291200200045 
   1518.420                                                       2291200200046 
 154.026      0.004      0.073    0.09      1728.312   0.003      2291200200047 
   1574.288                                                       2291200200048 
 160.489      0.004      0.16     0.01      1518.420   0.003      2291200200049 
   1357.923                                                       2291200200050 
 161.209      0.005      0.14     0.02      1485.666   0.002      2291200200051 
   1324.457                                                       2291200200052 
 168.093      0.004      0.18     0.02      1738.992   0.002      2291200200053 
   1570.906                                                       2291200200054 
 172.835      0.003      0.82     0.03      1060.986   0.001      2291200200055 
    888.158                                                       2291200200056 
 177.699      0.007      0.17     0.02      1453.462   0.004      2291200200057 
   1275.767                                                       2291200200058 
 184.002      0.001    703.9      7.3        265.661   0.001      2291200200059 
     80.659                                                       2291200200060 
 185.292      0.001     26.7      1.1       1148.226   0.001      2291200200061 
    962.936                                                       2291200200062 
 188.663      0.003      0.25     0.02      1485.666   0.002      2291200200063 
   1297.001                                                       2291200200064 
 192.344      0.005      0.22     0.02      1826.748   0.002      2291200200065 
   1634.411                                                       2291200200066 
 211.711      0.003      0.59     0.02      1963.593   0.002      2291200200067 
   1751.879                                                       2291200200068 
 212.983      0.001     12.7      0.2       1570.906   0.002      2291200200069 
   1357.923                                                       2291200200070 
 216.193      0.013      0.59     0.02      1751.879   0.003      2291200200071 
   1535.660                                                       2291200200072 
 216.365      0.013      0.060    0.007     1574.288   0.003      2291200200073 
   1357.923                                                       2291200200074 
 219.823      0.001      2.0      0.1       1182.759   0.001      2291200200075 
    962.936                                                       2291200200076 
 228.263      0.001      1.45     0.03      1862.672   0.002      2291200200077 
   1634.411                                                       2291200200078 
 230.943      0.001      0.54     0.02      1766.602   0.002      2291200200079 
   1535.660                                                       2291200200080 
 236.008      0.002     18.6      0.9       1297.001   0.001      2291200200081 
   1060.986                                                       2291200200082 
 238.673      0.006      0.06     0.01      1535.660   0.001      2291200200083 
   1297.001                                                       2291200200084 
 247.1479     0.0009    11.2      0.2       1210.084   0.001      2291200200085 
    962.936                                                       2291200200086 
 251.139      0.024      0.18     0.04      1826.748   0.002      2291200200087 
   1575.608                                                       2291200200088 
 251.139      0.024      0.18     0.04      1575.608   0.002      2291200200089 
   1324.457                                                       2291200200090 
 260.067      0.008    129.       2.        1148.226   0.001      2291200200091 
    888.158                                                       2291200200092 
 263.472      0.001      1.23     0.02      1324.457   0.002      2291200200093 
   1060.986                                                       2291200200094 
 269.575      0.010      0.07     0.01      1840.480   0.003      2291200200095 
   1570.906                                                       2291200200096 
 275.582      0.004      0.81     0.04      1485.666   0.002      2291200200097 
   1210.084                                                       2291200200098 
 277.285      0.012      0.047    0.007     1574.288   0.003      2291200200099 
   1297.001                                                       2291200200100 
 278.572      0.001      1.88     0.117     1669.078   0.002      2291200200101 
   1390.507                                                       2291200200102 
 279.266      0.014      0.09     0.02      1637.190   0.002      2291200200103 
   1357.923                                                       2291200200104 
 280.937      0.002      0.52     0.01      1766.602   0.002      2291200200105 
   1485.666                                                       2291200200106 
 282.859      0.002    116.7      1.9        548.518   0.002      2291200200107 
    265.661                                                       2291200200108 
 291.073      0.038      0.034    0.009     1826.748   0.002      2291200200109 
   1535.660                                                       2291200200110 
 292.241      0.008      0.090    0.009     1745.710   0.007      2291200200111 
   1453.462                                                       2291200200112 
 295.141      0.001     21.7      0.4       1570.906   0.002      2291200200113 
   1275.767                                                       2291200200114 
 302.909      0.002      0.38     0.01      1485.666   0.002      2291200200115 
   1182.759                                                       2291200200116 
 308.321      0.006      0.16     0.02      1826.748   0.002      2291200200117 
   1518.420                                                       2291200200118 
 309.952      0.005      0.18     0.02      1634.411   0.001      2291200200119 
   1324.457                                                       2291200200120 
 311.157      0.001     18.1      0.9       1669.078   0.002      2291200200121 
   1357.923                                                       2291200200122 
 321.928      0.002     16.8      0.4       1210.084   0.001      2291200200123 
    888.158                                                       2291200200124 
 327.012      0.001     13.9      0.2       1862.672   0.002      2291200200125 
   1535.660                                                       2291200200126 
 329.184      0.001      3.1      0.2       1963.593   0.002      2291200200127 
   1634.411                                                       2291200200128 
 329.524      0.002      1.43     0.03      1390.507   0.002      2291200200129 
   1060.986                                                       2291200200130 
 329.987      0.015      0.40     0.03      1999.085   0.006      2291200200131 
   1669.078     1.                                                2291200200132 
 334.063      0.001     79.2      2.9       1297.001   0.001      2291200200133 
    962.936                                                       2291200200134 
 337.406      0.009      0.05     0.01      1634.411   0.001      2291200200135 
   1297.001                                                       2291200200136 
 341.081      0.003      0.27     0.03      1826.748   0.002      2291200200137 
   1485.666                                                       2291200200138 
 348.488      0.032      0.37     0.09      1738.992   0.002      2291200200139 
   1390.507                                                       2291200200140 
 352.897      0.006      0.45     0.08      1535.660   0.001      2291200200141 
   1182.759                                                       2291200200142 
 360.824      0.003      0.54     0.03      1570.906   0.002      2291200200143 
   1210.084                                                       2291200200144 
 361.419      0.002      0.50     0.06      1637.190   0.002      2291200200145 
   1275.767                                                       2291200200146 
 364.212      0.008      0.116    0.007     1574.288   0.003      2291200200147 
   1210.084                                                       2291200200148 
 370.389      0.003      0.45     0.02      1728.312   0.003      2291200200149 
   1357.923                                                       2291200200150 
 372.074      0.003      0.83     0.053     1669.078   0.002      2291200200151 
   1297.001                                                       2291200200152 
 377.015      0.005      0.22     0.01      1862.672   0.002      2291200200153 
   1485.666                                                       2291200200154 
 381.069      0.003      0.32     0.02      1738.992   0.002      2291200200155 
   1357.923                                                       2291200200156 
 387.017      0.021      0.009    0.003     1840.480   0.003      2291200200157 
   1453.462                                                       2291200200158 
 387.976      0.012      0.10     0.01      1963.593   0.002      2291200200159 
   1575.608                                                       2291200200160 
 391.541      0.014      0.22     0.02      1574.288   0.003      2291200200161 
   1182.759                                                       2291200200162 
 392.485      0.010      0.18     0.02      1453.462   0.004      2291200200163 
   1060.986                                                       2291200200164 
 392.851      0.005      0.54     0.02      1575.608   0.002      2291200200165 
   1182.759                                                       2291200200166 
 394.333      0.003      0.58     0.03      1691.334   0.002      2291200200167 
   1297.001                                                       2291200200168 
 408.678      0.005      0.24     0.01      1766.602   0.002      2291200200169 
   1357.923                                                       2291200200170 
 415.569      0.003      2.7      0.2       1691.334   0.002      2291200200171 
   1275.767                                                       2291200200172 
 422.692      0.009      0.75     0.09      1570.906   0.002      2291200200173 
   1148.226                                                       2291200200174 
 424.676      0.004      0.48     0.03      1485.666   0.002      2291200200175 
   1060.986                                                       2291200200176 
 427.110      0.002      1.15     0.06      1637.190   0.002      2291200200177 
   1210.084                                                       2291200200178 
 427.433      0.005      0.50     0.04      1751.879   0.003      2291200200179 
   1324.457                                                       2291200200180 
 427.932      0.002      1.91     0.03      1963.593   0.002      2291200200181 
   1535.660                                                       2291200200182 
 436.241      0.004      0.51     0.02      1826.748   0.002      2291200200183 
   1390.507                                                       2291200200184 
 441.988      0.005      0.36     0.02      1738.992   0.002      2291200200185 
   1297.001                                                       2291200200186 
 451.649      0.002      2.2      0.02      1634.411   0.001      2291200200187 
   1182.759                                                       2291200200188 
 452.535      0.08       0.41     0.7       1728.312   0.003      2291200200189 
