ENTRY            22981   20070919                             21872298100000001 
SUBENT        22981001   20070919                             21872298100100001 
BIB                 13         32                                 2298100100002 
TITLE      .Measurement of neutron capture cross section          2298100100003 
            for natural palladium.                                2298100100004 
AUTHOR     (J.Hori, H.Yashima, T.Oishi, W.Takahashi, M.Baba,      2298100100005 
           K.Nakajima)                                            2298100100006 
INSTITUTE  (2JPNKTO) Research Reactor Institute, Kyoto University,2298100100007 
             Kumatori-cho, Sennan-gun, Osaka 590-0494, Japan.     2298100100008 
              J.Hori, H.Yashima, K.Nakajima                       2298100100009 
           (2JPNTOH) Cyclotron and Radioisotope Center, Tohoku    2298100100010 
             University, Aoba, Aramaki, Aoba-ku, Sendai 980-8578, 2298100100011 
             Japan. T. Oishi, W.Takahashi, M.Baba                 2298100100012 
REFERENCE  (C,2005NOTRED,,577,2005)  Main reference, graph given  2298100100013 
REL-REF    (N,,S.YAMAMOTO+,J,NIM/A,249,484,1986) Description of   2298100100014 
             the detector BGO (Bi4-Ge3-O12) assembly              2298100100015 
FACILITY   (LINAC,2JPNKTO)  46 MeV Kyoto electron accelerator.    2298100100016 
             For En < 20 eV electron repetition rate 50 Hz, pulse 2298100100017 
             width 3 microsec, average electron current 78 microA.2298100100018 
             For En > 2 eV repetition rate is 200 Hz, pulse width 2298100100019 
             47 nanosec, average electron current 45 microA.      2298100100020 
INC-SOURCE (PHOTO,THCOL)  Water-cooled Tantalum target in a water 2298100100021 
             tank as a moderator                                  2298100100022 
METHOD     (TOF)  Flight path aprx 13 m                           2298100100023 
DETECTOR   (SCIN)  Total absorption spectrometer consisting of    2298100100024 
                 twelwe BGO scintillators located at 12.7+-0.02 m 2298100100025 
                 from the neutron source                          2298100100026 
SAMPLE     .Palladium metal plate 1.8*1.8*0.1 cm3 was used as a   2298100100027 
            sample                                                2298100100028 
MONITOR    (5-B-10(N,A)3-LI-7,,SIG)                               2298100100029 
CORRECTION .Corrections for background made with the notch-filters2298100100030 
            of In, Co, Mn and a block-off method with a thick     2298100100031 
            B-10 plug 4.54 gram/cm2 thick. Correction for neutron 2298100100032 
            scattering and self-shielding were made also.         2298100100033 
HISTORY    (20070919C)                                            2298100100034 
ENDBIB              32          0                                 2298100100035 
NOCOMMON             0          0                                 2298100100036 
ENDSUBENT           35          0                                 2298100199999 
SUBENT        22981002   20070821                             21872298100200001 
BIB                  3          5                                 2298100200002 
REACTION   (46-PD-0(N,G),,SIG)                                    2298100200003 
ERR-ANALYS (EN-ERR-DIG) Incident neutron energy digitizing error  2298100200004 
           (ERR-DIG)    Data digitizing error                     2298100200005 
           (DATA-ERR)   Error from the graphic bars               2298100200006 
STATUS     (CURVE) Fig.2 of main reference                        2298100200007 
ENDBIB               5          0                                 2298100200008 
COMMON               2          3                                 2298100200009 
EN-ERR-DIG ERR-DIG                                                2298100200010 
PER-CENT   PER-CENT                                               2298100200011 
 5.4166E-03 1.0185E-02                                            2298100200012 
ENDCOMMON            3          0                                 2298100200013 
DATA                 3        669                                 2298100200014 
EN         DATA       DATA-ERR                                    2298100200015 
EV         B          B                                           2298100200016 
  1.0983E-2     10.022                                            2298100200017 
  1.2787E-2     9.3511                                            2298100200018 
  1.4662E-2      8.929                                            2298100200019 
  1.6813E-2     8.1418                                            2298100200020 
  1.9279E-2     7.7743                                            2298100200021 
  2.2106E-2     7.2542                                            2298100200022 
  2.5737E-2     6.9267                                            2298100200023 
  2.9512E-2      6.316                                            2298100200024 
  3.3840E-2     5.8935                                            2298100200025 
  3.8804E-2     5.6275                                            2298100200026 
  4.5177E-2     5.1313                                            2298100200027 
  5.1803E-2      4.788                                            2298100200028 
  5.9401E-2     4.4677                                            2298100200029 
  6.8113E-2     4.1688                                            2298100200030 
  7.8104E-2     3.8899                                            2298100200031 
  8.9559E-2     3.6297                                            2298100200032 
    0.10427     3.3868                                            2298100200033 
    0.11956     3.1602                                            2298100200034 
     0.1371     2.8816                                            2298100200035 
    0.15721     2.6888                                            2298100200036 
    0.18302     2.4517                                            2298100200037 
     0.2067     2.2356                                            2298100200038 
    0.24065      2.086                                            2298100200039 
    0.27595     2.0383                                            2298100200040 
    0.31642     1.8586                                            2298100200041 
    0.36839     1.6947                                            2298100200042 
    0.42242     1.5101                                            2298100200043 
    0.48437     1.3455                                            2298100200044 
    0.55542     1.4089                                            2298100200045 
    0.63687     1.1187                                            2298100200046 
    0.74147     1.0682                                            2298100200047 
    0.85025     1.1447                                            2298100200048 
    0.97495     1.0437                                            2298100200049 
     1.1011      1.068                                            2298100200050 
     1.1525    0.99661                                            2298100200051 
     1.2063    0.92998                                            2298100200052 
      1.282     1.1183                                            2298100200053 
     1.3418     1.1711                                            2298100200054 
      1.426     1.1444                                            2298100200055 
       1.47    0.97378                                            2298100200056 
     1.5386    0.86772                                            2298100200057 
     1.6104    0.95154                                            2298100200058 
     1.6602      1.171                                            2298100200059 
     1.7644     1.1443                                            2298100200060 
     1.8187    0.88789                                            2298100200061 
      1.875     1.0926                                            2298100200062 
     1.9926     1.0926                                            2298100200063 
      2.054    0.82849                                            2298100200064 
       2.15     1.0926                                            2298100200065 
     2.2503    0.86756                                            2298100200066 
     2.3199     1.0925                                            2298100200067 
     2.3917     1.3445                                            2298100200068 
     2.5032     1.1707                                            2298100200069 
     2.5417     1.3138                                            2298100200070 
       2.62    0.99621                                            2298100200071 
     2.7011     1.3138                                            2298100200072 
     2.7427      1.773                                            2298100200073 
     2.8275     2.1818                                            2298100200074 
     2.8711     3.7946                                            2298100200075 
     2.9601     5.7466                                            2298100200076 
     3.0054     5.2402                                            2298100200077 
      3.051     2.8117                                            2298100200078 
     3.1449     1.6929                                            2298100200079 
     3.1928     1.0675                                            2298100200080 
     3.4451     1.1178                                            2298100200081 
     3.5514    0.97336                                            2298100200082 
      3.774    0.79092                                            2298100200083 
     3.7743     1.1978                                            2298100200084 
     4.0111     1.2836                                            2298100200085 
      4.198    0.84752                                            2298100200086 
     4.2622    0.73801  9.5357E-2                                 2298100200087 
     4.4614    0.92939                                            2298100200088 
     4.7412    0.88747                                            2298100200089 
     4.8877    0.99591                                            2298100200090 
     5.0388     1.1437                                            2298100200091 
     5.1163     1.4074                                            2298100200092 
      5.355     1.2541                                            2298100200093 
     5.6047    0.95096                                            2298100200094 
      5.778     1.1436                                            2298100200095 
     6.1399    0.79073    0.10217                                 2298100200096 
     6.1402    0.95092                                            2298100200097 
     6.4271     1.1702                                            2298100200098 
     6.7268    0.97306    0.14504                                 2298100200099 
     7.1491     1.2254                                            2298100200100 
     7.5973     1.0427    0.15542                                 2298100200101 
     8.0738      1.067    0.13786                                 2298100200102 
     8.1978     1.1974                                            2298100200103 
     9.1185     1.0918    0.18392                                 2298100200104 
     9.9899     1.1972    0.20168                                 2298100200105 
     10.143     1.4734                                            2298100200106 
     10.779     1.1172    0.14435                                 2298100200107 
     11.284     1.9429                                            2298100200108 
     11.284     2.2312                                            2298100200109 
     11.634     4.4562                                            2298100200110 
     11.634     3.8804                                            2298100200111 
     11.635     6.2977                                            2298100200112 
     11.636     10.221                                            2298100200113 
     11.815     14.444                                            2298100200114 
     11.815     11.737                                            2298100200115 
     11.816     16.974                                            2298100200116 
     12.178     5.2367                                            2298100200117 
     12.179     8.1157                                            2298100200118 
     12.363     3.3019                                            2298100200119 
     12.553     4.3545                                            2298100200120 
     12.556     13.171                                            2298100200121 
     12.746     6.0136                                            2298100200122 
     12.747     7.0669                                            2298100200123 
     12.748     9.7596                                            2298100200124 
      12.75     23.441                                            2298100200125 
     12.751      28.19                                            2298100200126 
     12.751     37.176                                            2298100200127 
     12.753     58.958                                            2298100200128 
     12.944     15.839                                            2298100200129 
     12.944     11.469                                            2298100200130 
     12.947     47.909                                            2298100200131 
     12.949     83.321                                            2298100200132 
      12.95     104.93                                            2298100200133 
      12.95     132.14                                            2298100200134 
     13.143     17.774                                            2298100200135 
     13.149     158.91                                            2298100200136 
      13.55     20.888                                            2298100200137 
      13.55     25.119                                            2298100200138 
     13.551     33.126                                            2298100200139 
     13.551     39.837                                            2298100200140 
     13.552     56.299                                            2298100200141 
     13.554     117.75                                            2298100200142 
     13.554     95.682                                            2298100200143 
     13.754     7.7495                                            2298100200144 
     13.754     6.7482                                            2298100200145 
     13.755     9.1069                                            2298100200146 
     13.755     11.207                                            2298100200147 
     13.756      12.87                                            2298100200148 
     13.761      77.75                                            2298100200149 
     13.763     148.29                                            2298100200150 
     13.962     2.6218                                            2298100200151 
     13.964     5.6114                                            2298100200152 
     13.964     4.8863                                            2298100200153 
     13.967     17.369                                            2298100200154 
     14.175     2.1801                                            2298100200155 
     14.177     3.3017                                            2298100200156 
     14.177     4.3542                                            2298100200157 
     14.393     2.8095                                            2298100200158 
     14.612     1.6917                                            2298100200159 
     14.837     1.9427                                            2298100200160 
     15.063     1.5074                                            2298100200161 
     15.529     1.8128                                            2298100200162 
     15.766     1.2827                                            2298100200163 
     16.501     1.0915    0.18387                                 2298100200164 
     17.012     1.5785                                            2298100200165 
     17.272     1.0915    0.16269                                 2298100200166 
     17.272     1.2248                                            2298100200167 
     17.806     1.4066                                            2298100200168 
     18.356     1.6153                                            2298100200169 
     19.805    0.97255    0.14497                                 2298100200170 
      20.11     1.6529                                            2298100200171 
      20.11     1.4729     0.1604                                 2298100200172 
     20.417     1.0665    0.13781                                 2298100200173 
      21.37     1.1968    0.17839                                 2298100200174 
     21.371     1.5423    0.19929                                 2298100200175 
     22.032     1.7712                                            2298100200176 
      22.37      2.034                                            2298100200177 
     23.774     2.0813                                            2298100200178 
     24.139     2.7448                                            2298100200179 
     24.146     9.5342                                            2298100200180 
     24.512     4.6648                                            2298100200181 
     24.514     7.0647                                            2298100200182 
     24.518     13.167                                            2298100200183 
     24.519     19.042                                            2298100200184 
      24.52     22.899                                            2298100200185 
     24.522     30.903                                            2298100200186 
     24.525        55.                                            2298100200187 
     24.899     42.678                                            2298100200188 
     24.902     75.956                                            2298100200189 
     25.655     3.7905                                            2298100200190 
     25.658     5.7406                                            2298100200191 
     25.659     7.7471                                            2298100200192 
     25.662     12.286                                            2298100200193 
     25.664      19.94                                            2298100200194 
     25.667     33.889                                            2298100200195 
     25.669      49.01                                            2298100200196 
     25.671      63.16                                            2298100200197 
     26.046     2.5613                                            2298100200198 
     26.048     3.3007                                            2298100200199 
     26.054     10.217                                            2298100200200 
     27.681     2.8086                                            2298100200201 
     28.104     2.3355    0.30177                                 2298100200202 
     28.973     2.8741                                            2298100200203 
     28.975     3.7903                                            2298100200204 
      29.42     4.9985                                            2298100200205 
     29.421     5.8741                                            2298100200206 
     29.874       7.57                                            2298100200207 
     30.333     8.6931                                            2298100200208 
