ENTRY            23750   20220623                             23122375000000001 
SUBENT        23750001   20220623                             23122375000100001 
BIB                 12         35                                 2375000100002 
TITLE      Measurements of neutron capture cross-sections of      2375000100003 
            161Dy and 163Dy between 0.003 eV and 10 keV using a   2375000100004 
            total energy absorption detector                      2375000100005 
AUTHOR     (G.N.Kim, Y.S.Lee, I.S.Ko, M.H.Cho, W.Namkung,         2375000100006 
            T.I.Ro, Y.K.Min, S.Y.Lee, S.Yamamoto, K.Kobayashi,    2375000100007 
            Y.Fujita)                                             2375000100008 
INSTITUTE  (3KORKNU,3KORPUE,2JPNKTO)                              2375000100009 
           (3KORKOR) Dong-A University, Busan                     2375000100010 
REFERENCE  (C,2002BRUSS,,613,2002)                                2375000100011 
           ((S,ISINN-10,283,2003)=(S,JINR-E3-2003-10,2003))       2375000100012 
FACILITY   (LINAC,2JPNKTO) KURRI 46 MeV electron linac            2375000100013 
INC-SOURCE (PHOTO) 30 MeV electrons on 12 sheets of Ta plates     2375000100014 
            (5 cm diam., 2.9 cm effective thickness) followed by  2375000100015 
            water tank (30 cm diam., 10 cm thick) moderator.      2375000100016 
SAMPLE     - Sm metal plate (natural, 99.8% purity, 0.5 mm thick, 2375000100017 
              1.807 at/kb, 1.8x1.8 cm2) for flux determination    2375000100018 
           - B powder (enriched to 10B at 96.98%), 8.0 mm thick,  2375000100019 
              52.42 at/kb, 1.8x1.8 cm2) for flux determination    2375000100020 
           - C graphite plate (natural, 99.9% purity,             2375000100021 
              10.00 mm thick, 24.61 at/kb, 1.8x1.8 cm2)           2375000100022 
DETECTOR   (BGO) 12 BGO scintillators (5 cm x 5 cm, 7.5 cm for    2375000100023 
            each)                                                 2375000100024 
METHOD     Total energy absorption                                2375000100025 
           (TOF) Flight path of 12.70+/-0.02 m and 135 deg with   2375000100026 
            respect to the electron beam line.                    2375000100027 
           - Low energy mode (En < 10 eV):                        2375000100028 
              Repetition rate of 30 Hz, pulse width of 3 usec,    2375000100029 
              peak current of 0.5 A.                              2375000100030 
           - High energy mode (En > 1 eV):                        2375000100031 
              Repetition rate of 200 Hz, pulse width of 0.1 usec, 2375000100032 
              peak current of 3 A.                                2375000100033 
CORRECTION Corrected for self-shielding                           2375000100034 
STATUS     (TABLE) Data received from Guinyun Kim                 2375000100035 
HISTORY    (20220624R) On. Received by email from Guinyun Kim.    2375000100036 
           (20220624C) On                                         2375000100037 
ENDBIB              35          0                                 2375000100038 
NOCOMMON             0          0                                 2375000100039 
ENDSUBENT           38          0                                 2375000199999 
SUBENT        23750002   20220623                             23122375000200001 
BIB                  2          8                                 2375000200002 
REACTION   (66-DY-161(N,G)66-DY-162,,SIG,,TTA)                    2375000200003 
SAMPLE     Dy metal (enriched to 161Dy at 95.66%, 0.21 mm thick,  2375000200004 
            0.636 at/kb, 1.0 cm diam.)                            2375000200005 
           (66-DY-161,ENR=0.9566)                                 2375000200006 
           (66-DY-160,ENR=0.0035)                                 2375000200007 
           (66-DY-162,ENR=0.0253)                                 2375000200008 
           (66-DY-163,ENR=0.0090)                                 2375000200009 
           (66-DY-164,ENR=0.0056)                                 2375000200010 
ENDBIB               8          0                                 2375000200011 
COMMON               1          3                                 2375000200012 
THICKNESS                                                         2375000200013 
ATOMS/B                                                           2375000200014 
  0.636E-03                                                       2375000200015 
ENDCOMMON            3          0                                 2375000200016 
DATA                 2        444                                 2375000200017 
EN         DATA                                                   2375000200018 
EV         B                                                      2375000200019 
 3.1700E-03 1644.5339                                             2375000200020 
 3.2300E-03 1743.0481                                             2375000200021 
 3.2900E-03 1767.2221                                             2375000200022 
 3.3500E-03 1713.5034                                             2375000200023 
 3.4100E-03 1595.7068                                             2375000200024 
 3.4700E-03 1556.5284                                             2375000200025 
 3.5300E-03 1587.5242                                             2375000200026 
 3.6000E-03 1653.6025                                             2375000200027 
 3.6600E-03 1646.5534                                             2375000200028 
 3.7300E-03 1677.3677                                             2375000200029 
 3.8000E-03 1412.5867                                             2375000200030 
 3.8700E-03 1513.4746                                             2375000200031 
 3.9400E-03 1656.5646                                             2375000200032 
 4.0100E-03 1503.3599                                             2375000200033 
 4.0900E-03 1558.7712                                             2375000200034 
 4.1600E-03 1543.7338                                             2375000200035 
 4.2400E-03 1600.6863                                             2375000200036 
 4.3200E-03 1504.0403                                             2375000200037 
 4.3900E-03 1516.1743                                             2375000200038 
 4.4800E-03 1502.9448                                             2375000200039 
 4.5600E-03 1398.2606                                             2375000200040 
 4.6400E-03 1623.8089                                             2375000200041 
 4.7300E-03 1474.1480                                             2375000200042 
 4.8100E-03 1513.6213                                             2375000200043 
 4.9000E-03 1490.2234                                             2375000200044 
 4.9900E-03 1403.2493                                             2375000200045 
 5.0800E-03 1366.9640                                             2375000200046 
 5.1800E-03 1334.7901                                             2375000200047 
 5.2700E-03 1389.6566                                             2375000200048 
 5.3700E-03 1353.1715                                             2375000200049 
 5.4700E-03 1412.2743                                             2375000200050 
 5.5700E-03 1358.4764                                             2375000200051 
 5.6700E-03 1280.3652                                             2375000200052 
 5.7700E-03 1308.2081                                             2375000200053 
 5.8800E-03 1365.7564                                             2375000200054 
 5.9900E-03 1312.5090                                             2375000200055 
 6.1000E-03 1278.3199                                             2375000200056 
 6.2100E-03 1313.9612                                             2375000200057 
 6.3200E-03 1268.1250                                             2375000200058 
 6.4400E-03 1259.3314                                             2375000200059 
 6.5600E-03 1272.4574                                             2375000200060 
 6.6800E-03 1246.7999                                             2375000200061 
 6.8000E-03 1252.0988                                             2375000200062 
 6.9200E-03 1247.8906                                             2375000200063 
 7.0500E-03 1210.0609                                             2375000200064 
 7.1800E-03 1210.9452                                             2375000200065 
 7.3100E-03 1201.9460                                             2375000200066 
 7.4500E-03 1163.9959                                             2375000200067 
 7.5800E-03 1190.0163                                             2375000200068 
 7.7200E-03 1178.8620                                             2375000200069 
 7.8600E-03 1176.7223                                             2375000200070 
 8.0100E-03 1149.7283                                             2375000200071 
 8.1500E-03 1168.3900                                             2375000200072 
 8.3000E-03 1122.0004                                             2375000200073 
 8.4600E-03 1097.5979                                             2375000200074 
 8.6100E-03 1143.1182                                             2375000200075 
 8.7700E-03 1087.7262                                             2375000200076 
 8.9300E-03 1060.6317                                             2375000200077 
 9.0900E-03 1080.4155                                             2375000200078 
 9.2600E-03 1046.5556                                             2375000200079 
 9.4300E-03 1048.9855                                             2375000200080 
 9.6000E-03 1066.1812                                             2375000200081 
 9.7800E-03 1052.5748                                             2375000200082 
 9.9600E-03 1033.7408                                             2375000200083 
 1.0140E-02 1060.2998                                             2375000200084 
 1.0330E-02 1016.0385                                             2375000200085 
 1.0520E-02  994.0042                                             2375000200086 
 1.0710E-02 1004.5201                                             2375000200087 
 1.0910E-02  965.9603                                             2375000200088 
 1.1110E-02  959.6121                                             2375000200089 
 1.1310E-02  960.6310                                             2375000200090 
 1.1520E-02  931.1497                                             2375000200091 
 1.1730E-02  926.0808                                             2375000200092 
 1.1950E-02  945.2283                                             2375000200093 
 1.2170E-02  921.2775                                             2375000200094 
 1.2390E-02  930.6681                                             2375000200095 
 1.2620E-02  907.0753                                             2375000200096 
 1.2850E-02  914.1046                                             2375000200097 
 1.3080E-02  894.6386                                             2375000200098 
 1.3320E-02  902.5306                                             2375000200099 
 1.3570E-02  883.0931                                             2375000200100 
 1.3820E-02  871.4446                                             2375000200101 
 1.4070E-02  855.9858                                             2375000200102 
 1.4330E-02  852.9978                                             2375000200103 
 1.4590E-02  836.7951                                             2375000200104 
 1.4860E-02  824.8145                                             2375000200105 
 1.5130E-02  826.9470                                             2375000200106 
 1.5410E-02  829.5009                                             2375000200107 
 1.5690E-02  817.3119                                             2375000200108 
 1.5980E-02  815.9052                                             2375000200109 
 1.6270E-02  810.6402                                             2375000200110 
 1.6570E-02  794.0013                                             2375000200111 
 1.6880E-02  783.8473                                             2375000200112 
 1.7190E-02  787.3514                                             2375000200113 
 1.7500E-02  770.2529                                             2375000200114 
 1.7820E-02  760.3903                                             2375000200115 
 1.8150E-02  769.3902                                             2375000200116 
 1.8480E-02  750.2366                                             2375000200117 
 1.8820E-02  744.1219                                             2375000200118 
 1.9170E-02  737.9206                                             2375000200119 
 1.9520E-02  735.4598                                             2375000200120 
 1.9880E-02  722.0778                                             2375000200121 
 2.0240E-02  713.6186                                             2375000200122 
 2.0610E-02  704.8274                                             2375000200123 
 2.0990E-02  709.1118                                             2375000200124 
 2.1380E-02  705.1553                                             2375000200125 
 2.1770E-02  688.6733                                             2375000200126 
 2.2170E-02  693.0050                                             2375000200127 
 2.2570E-02  676.7024                                             2375000200128 
 2.2990E-02  674.9272                                             2375000200129 
 2.3410E-02  663.5753                                             2375000200130 
 2.3840E-02  659.8645                                             2375000200131 
 2.4280E-02  659.9476                                             2375000200132 
 2.4720E-02  648.1666                                             2375000200133 
 2.5300E-02  644.6024                                             2375000200134 
 2.5640E-02  635.4955                                             2375000200135 
 2.6110E-02  630.9337                                             2375000200136 
 2.6590E-02  621.1833                                             2375000200137 
 2.7080E-02  618.7012                                             2375000200138 
 2.7570E-02  608.5156                                             2375000200139 
 2.8080E-02  605.8013                                             2375000200140 
 2.8590E-02  604.6869                                             2375000200141 
 2.9120E-02  597.5810                                             2375000200142 
 2.9650E-02  596.8304                                             2375000200143 
 3.0200E-02  586.7118                                             2375000200144 
 3.0750E-02  578.9943                                             2375000200145 
 3.1310E-02  579.7993                                             2375000200146 
 3.1890E-02  569.8517                                             2375000200147 
 3.2470E-02  563.0932                                             2375000200148 
 3.3070E-02  557.5807                                             2375000200149 
 3.3680E-02  553.5950                                             2375000200150 
 3.4290E-02  548.3996                                             2375000200151 
 3.4920E-02  547.7524                                             2375000200152 
 3.5560E-02  535.3471                                             2375000200153 
 3.6220E-02  531.5809                                             2375000200154 
 3.6880E-02  530.5638                                             2375000200155 
 3.7560E-02  527.6177                                             2375000200156 
 3.8250E-02  520.6618                                             2375000200157 
 3.8950E-02  514.9659                                             2375000200158 
 3.9660E-02  507.7342                                             2375000200159 
 4.0390E-02  509.7734                                             2375000200160 
 4.1130E-02  502.1196                                             2375000200161 
 4.1890E-02  495.3718                                             2375000200162 
 4.2660E-02  491.9669                                             2375000200163 
 4.3440E-02  488.8267                                             2375000200164 
 4.4240E-02  481.5100                                             2375000200165 
 4.5050E-02  477.3154                                             2375000200166 
 4.5870E-02  473.5810                                             2375000200167 
 4.6720E-02  468.7399                                             2375000200168 
 4.7570E-02  461.9819                                             2375000200169 
 4.8450E-02  460.7901                                             2375000200170 
 4.9330E-02  459.6123                                             2375000200171 
 5.0240E-02  453.3451                                             2375000200172 
 5.1160E-02  446.1389                                             2375000200173 
 5.2100E-02  447.6936                                             2375000200174 
 5.3060E-02  438.8004                                             2375000200175 
 5.4030E-02  434.2707                                             2375000200176 
 5.5020E-02  434.4691                                             2375000200177 
 5.6030E-02  427.0412                                             2375000200178 
 5.7060E-02  424.5126                                             2375000200179 
 5.8100E-02  421.3116                                             2375000200180 
 5.9170E-02  421.6208                                             2375000200181 
 6.0260E-02  412.3259                                             2375000200182 
 6.1360E-02  407.8212                                             2375000200183 
 6.2490E-02  402.8974                                             2375000200184 
 6.3630E-02  399.2255                                             2375000200185 
 6.4800E-02  395.2251                                             2375000200186 
 6.5990E-02  390.6538                                             2375000200187 
 6.7200E-02  391.5104                                             2375000200188 
 6.8440E-02  384.0888                                             2375000200189 
 6.9690E-02  378.1897                                             2375000200190 
 7.0970E-02  373.8811                                             2375000200191 
 7.2270E-02  371.7253                                             2375000200192 
 7.3600E-02  368.9782                                             2375000200193 
 7.4950E-02  364.9758                                             2375000200194 
 7.6320E-02  359.0863                                             2375000200195 
 7.7720E-02  355.3366                                             2375000200196 
 7.9150E-02  354.6878                                             2375000200197 
 8.0600E-02  349.8580                                             2375000200198 
 8.2080E-02  343.1962                                             2375000200199 
 8.3590E-02  343.4004                                             2375000200200 
 8.5120E-02  337.0355                                             2375000200201 
 8.6680E-02  336.7753                                             2375000200202 
 8.8270E-02  333.8332                                             2375000200203 
 8.9890E-02  331.2190                                             2375000200204 
 9.1540E-02  321.5386                                             2375000200205 
